Chamber_1(kPa),chamber_2(kPa),chamber_3(kPa),chamber_4(kPa),chamber_5(kPa),chamber_6(kPa),time(s)
-0.515,-0.53458,-0.515,-0.76,-0.6375,-0.76,0
-0.8825,-0.6826,-0.515,-1.005,-0.76,-0.76,0.024569
-0.515,-0.53458,-0.76,-0.8825,-0.8825,-1.005,0.051193
-1.005,-0.83062,-0.76,-0.76,-0.76,-0.76,0.077922
-1.125,-1.2747,-0.76,-1.2475,-0.8825,-1.2475,0.10441
-6.625,-6.7364,-4.7925,-5.77,-5.28,-4.7925,0.12903
-9.0675,-9.2467,-7.235,-6.99,-6.7475,-6.7475,0.15562
-11.145,-11.757,-9.8025,-9.0675,-8.825,-8.4575,0.18224
-13.345,-13.971,-12,-10.535,-10.78,-10.535,0.20887
-15.3,-16.038,-13.955,-12.122,-12.49,-12.612,0.23345
-16.768,-17.071,-15.79,-13.222,-13.713,-13.835,0.26009
-17.988,-17.811,-16.768,-14.2,-14.69,-15.055,0.28668
-19.088,-18.696,-17.865,-15.178,-16.032,-16.768,0.3133
-20.31,-19.729,-18.965,-16.277,-16.887,-17.865,0.33789
-21.042,-20.173,-19.7,-16.645,-17.745,-18.355,0.36451
-22.02,-21.206,-20.31,-17.378,-18.843,-19.577,0.39114
-22.633,-21.502,-20.797,-17.988,-19.455,-20.187,0.41774
-23.488,-22.239,-21.41,-18.722,-19.942,-21.042,0.44233
-24.097,-22.387,-22.02,-19.088,-20.677,-21.897,0.46895
-24.708,-22.831,-22.633,-19.942,-21.41,-22.633,0.49555
-25.443,-23.272,-23.73,-20.797,-22.387,-23.61,0.52222
-26.42,-24.157,-24.465,-21.41,-23.365,-24.343,0.54881
-26.663,-24.306,-24.953,-22.142,-24.097,-24.953,0.57341
-27.397,-25.339,-25.565,-22.752,-24.465,-25.807,0.60004
-27.885,-25.783,-25.93,-23.365,-25.197,-26.785,0.62664
-28.62,-26.375,-26.663,-24.097,-26.175,-27.52,0.65325
-29.23,-27.112,-27.153,-24.708,-26.907,-28.253,0.67786
-29.475,-26.964,-27.52,-25.075,-27.275,-28.375,0.70448
-30.453,-27.701,-28.253,-25.807,-27.885,-29.107,0.73108
-31.063,-28.145,-28.863,-26.543,-28.62,-29.84,0.75769
-31.795,-28.882,-29.84,-27.275,-29.598,-31.185,0.78227
-32.162,-29.622,-30.33,-27.885,-30.33,-31.552,0.8089
-32.895,-30.211,-30.94,-28.375,-31.185,-32.407,0.83554
-33.75,-30.951,-31.795,-29.23,-31.552,-32.65,0.86213
-34.24,-30.803,-31.917,-29.84,-32.04,-33.262,0.88671
-34.605,-31.392,-32.53,-30.207,-32.773,-34.117,0.91332
-34.85,-31.54,-32.65,-30.575,-33.385,-34.605,0.93995
-35.705,-32.281,-33.262,-31.43,-34.24,-35.462,0.96658
-36.44,-33.018,-33.995,-31.917,-34.485,-35.34,0.99317
-36.805,-33.166,-33.995,-32.162,-34.85,-35.828,1.0178
-37.418,-33.903,-34.85,-32.895,-35.462,-36.44,1.0444
-37.905,-33.903,-35.218,-33.385,-36.44,-37.418,1.071
-38.395,-34.643,-36.072,-33.872,-36.928,-37.905,1.0976
-39.373,-35.38,-36.805,-34.85,-37.418,-38.515,1.1222
-39.615,-35.528,-37.05,-35.218,-37.782,-38.515,1.1488
-40.35,-36.561,-37.782,-35.95,-38.638,-39.615,1.1754
-40.96,-37.005,-38.515,-36.805,-39.738,-40.47,1.2022
-41.205,-37.298,-38.76,-37.295,-40.105,-40.715,1.2267
-42.06,-38.038,-39.25,-37.782,-40.47,-41.327,1.2533
-42.183,-37.742,-39.373,-38.395,-40.96,-41.57,1.2799
-42.793,-38.186,-39.738,-38.76,-41.205,-42.06,1.3065
-43.16,-38.775,-40.47,-39.373,-42.305,-42.67,1.3331
-43.892,-39.515,-40.96,-40.35,-43.282,-43.892,1.3577
-44.137,-39.808,-41.327,-40.47,-43.16,-43.77,1.3843
-44.502,-40.104,-41.693,-41.083,-43.647,-44.38,1.411
-45.602,-41.434,-42.793,-42.06,-44.625,-45.237,1.4376
-45.48,-41.138,-43.037,-42.305,-44.992,-45.48,1.4622
-45.602,-41.286,-43.16,-42.793,-45.725,-46.093,1.4888
-46.215,-41.582,-43.77,-43.525,-45.97,-46.947,1.5154
-46.703,-42.319,-44.26,-44.502,-46.825,-47.435,1.5422
-47.315,-43.059,-44.747,-44.992,-47.435,-47.803,1.5686
-48.17,-43.944,-45.602,-45.97,-48.17,-48.535,1.5932
-48.78,-43.944,-45.725,-46.337,-48.657,-49.148,1.6198
-48.78,-43.944,-45.725,-47.07,-49.025,-49.39,1.6464
-49.39,-44.533,-46.337,-47.557,-49.513,-50.002,1.6731
-50.125,-45.273,-47.07,-48.17,-50.248,-50.49,1.6977
-50.367,-45.714,-47.315,-48.657,-50.735,-50.858,1.7243
-51.225,-46.602,-48.292,-50.002,-51.958,-51.958,1.7509
-51.59,-46.895,-48.292,-50.002,-51.712,-52.08,1.7775
-51.468,-47.043,-48.657,-50.125,-51.835,-52.322,1.8021
-52.08,-47.043,-49.27,-51.468,-52.935,-53.18,1.8287
-52.812,-47.928,-50.002,-51.835,-53.545,-53.79,1.8553
-53.422,-48.521,-50.367,-52.69,-54.522,-54.4,1.8819
-53.79,-48.965,-50.735,-53.18,-54.522,-54.89,1.9086
-54.035,-49.11,-51.102,-53.912,-55.255,-55.745,1.9331
-54.89,-50.291,-52.203,-55.135,-56.722,-56.968,1.9598
-54.89,-50.291,-51.835,-54.768,-56.112,-56.232,1.9864
-55.255,-50.291,-52.322,-55.622,-56.845,-57.332,2.013
-55.378,-50.439,-52.445,-55.378,-56.722,-57.09,2.0376
-56.232,-51.327,-53.18,-56.355,-57.578,-58.067,2.0642
-56.478,-51.768,-53.668,-56.845,-58.067,-58.31,2.0908
-56.845,-52.212,-53.912,-57.21,-58.555,-58.922,2.1174
-57.7,-53.245,-54.89,-57.822,-58.8,-59.288,2.142
-58.067,-53.245,-55.012,-57.945,-59.165,-59.165,2.1687
-57.822,-52.801,-55.012,-58.31,-59.288,-59.655,2.1953
-58.432,-53.541,-55.745,-59.165,-60.51,-61,2.2219
-58.922,-54.13,-56.232,-59.41,-60.387,-60.877,2.2486
-59.288,-54.574,-56.722,-60.142,-60.877,-61.12,2.2731
-59.9,-55.163,-56.845,-60.142,-61,-61.242,2.2997
-60.023,-55.459,-57.09,-60.755,-61.242,-61.733,2.3263
-61.242,-56.641,-58.432,-62.097,-62.833,-63.197,2.353
-61.242,-56.492,-58.188,-61.977,-62.587,-62.955,2.3775
-61.487,-56.789,-58.555,-62.343,-62.465,-62.955,2.4041
-61.487,-56.937,-58.678,-62.22,-62.465,-62.955,2.4308
-61.977,-57.233,-58.922,-62.587,-62.833,-62.955,2.4574
-62.22,-57.822,-59.655,-63.32,-63.32,-63.81,2.482
-63.075,-58.707,-60.265,-63.32,-63.933,-64.055,2.5086
-63.197,-59.003,-60.265,-63.442,-63.688,-64.055,2.5352
-63.688,-59.151,-60.755,-64.055,-64.42,-64.543,2.5619
-63.565,-59.003,-60.633,-63.933,-64.175,-64.665,2.5884
-63.442,-59.595,-61.12,-64.42,-64.787,-65.032,2.613
-64.055,-60.184,-61.61,-65.032,-65.52,-65.765,2.6396
-64.175,-60.48,-61.61,-65.032,-65.397,-65.888,2.6663
-64.297,-60.332,-61.487,-65.397,-65.52,-66.01,2.6929
-64.543,-60.924,-62.097,-65.642,-65.642,-66.01,2.7175
-64.787,-60.924,-62.22,-65.888,-66.13,-66.375,2.7441
-65.275,-61.513,-62.71,-66.13,-66.375,-66.743,2.7707
-65.275,-61.513,-62.71,-66.252,-66.252,-66.743,2.7973
-65.765,-62.105,-63.197,-66.865,-66.987,-67.475,2.8244
-66.01,-62.398,-63.688,-67.108,-67.23,-67.23,2.8485
-66.252,-62.99,-64.055,-67.23,-67.475,-67.597,2.8751
-66.62,-63.286,-64.175,-67.475,-67.72,-67.843,2.9018
-66.987,-63.138,-64.055,-67.475,-67.72,-68.085,2.9284
-67.108,-63.579,-64.543,-67.843,-67.965,-68.453,2.953
-67.108,-63.579,-64.787,-67.965,-68.33,-68.453,2.9796
-68.085,-64.613,-65.765,-69.062,-69.43,-69.552,3.0062
-67.843,-64.613,-65.153,-68.575,-68.942,-68.82,3.0329
-67.843,-64.613,-65.032,-68.453,-68.698,-69.062,3.0574
-67.843,-64.909,-65.275,-68.82,-68.453,-68.942,3.084
-68.33,-64.909,-65.642,-69.185,-69.062,-69.43,3.1106
-68.33,-65.353,-65.765,-69.062,-69.185,-69.185,3.1373
-68.453,-65.205,-65.765,-69.308,-69.43,-69.43,3.1639
-68.82,-65.501,-66.01,-69.43,-69.43,-69.675,3.1885
-69.185,-66.09,-66.743,-70.162,-69.797,-70.285,3.2151
-68.942,-66.386,-66.743,-69.797,-70.04,-70.285,3.2417
-68.942,-66.386,-66.62,-69.797,-69.797,-69.92,3.2683
-69.43,-66.09,-66.743,-69.92,-69.92,-70.162,3.2929
-69.185,-66.09,-66.743,-69.92,-69.92,-70.285,3.3195
-68.942,-66.09,-66.62,-69.92,-70.04,-70.53,3.3462
-69.062,-66.09,-66.865,-70.162,-70.285,-70.653,3.3728
-69.675,-67.419,-67.353,-70.653,-71.14,-71.14,3.3995
-69.797,-67.123,-67.23,-70.775,-70.653,-70.898,3.424
-69.308,-66.83,-67.23,-70.775,-70.653,-70.898,3.4506
-69.675,-66.682,-67.108,-70.775,-70.775,-71.263,3.4772
-69.552,-66.534,-67.108,-70.653,-70.775,-71.017,3.5038
-70.53,-67.271,-67.843,-71.385,-71.508,-71.752,3.5284
-70.898,-67.715,-68.453,-71.385,-71.385,-71.63,3.555
-70.775,-67.863,-68.33,-71.63,-71.263,-71.508,3.5817
-71.017,-68.304,-68.698,-71.752,-71.875,-72.118,3.6083
-70.898,-68.156,-68.575,-71.63,-71.752,-71.995,3.6329
-71.017,-67.863,-68.453,-71.752,-71.995,-71.995,3.6595
-71.14,-68.156,-68.575,-71.752,-71.63,-71.875,3.6861
-71.017,-68.156,-68.575,-71.752,-71.995,-72.118,3.7127
-71.017,-68.304,-68.575,-71.875,-72.118,-72.485,3.7393
-71.385,-68.452,-68.698,-72.362,-72.608,-72.73,3.7639
-71.752,-69.192,-69.43,-72.73,-72.852,-72.73,3.7905
-71.263,-68.748,-68.82,-72.362,-72.118,-72.362,3.8172
-71.385,-68.304,-68.698,-72.24,-71.995,-72.24,3.8438
-70.53,-67.863,-68.33,-71.875,-71.875,-71.995,3.8684
-71.752,-68.6,-68.942,-72.608,-72.608,-72.73,3.895
-71.875,-69.337,-69.797,-72.972,-72.485,-72.972,3.9216
-72.118,-69.337,-69.797,-72.972,-72.972,-72.972,3.9482
-71.752,-68.896,-69.308,-72.485,-72.362,-72.485,3.9748
-71.63,-68.896,-69.43,-72.608,-72.73,-72.852,3.9994
-71.63,-68.896,-69.43,-72.608,-72.852,-72.972,4.026
-71.995,-69.192,-69.797,-72.852,-72.972,-73.462,4.0527
-71.995,-69.192,-69.675,-73.095,-72.73,-73.462,4.0793
-71.752,-68.896,-69.308,-72.73,-72.852,-72.972,4.1039
-71.875,-69.192,-69.43,-72.972,-73.095,-73.095,4.1305
-72.362,-69.633,-69.92,-73.34,-73.218,-73.462,4.1571
-72.362,-69.485,-69.675,-73.218,-72.972,-73.462,4.1837
-72.362,-69.485,-69.797,-73.34,-73.218,-73.462,4.2103
-72.485,-69.633,-70.04,-73.585,-73.462,-73.585,4.2349
-72.24,-69.485,-69.797,-73.095,-72.972,-73.095,4.2616
-72.485,-69.929,-69.675,-72.972,-72.73,-73.218,4.2881
-73.585,-70.814,-70.898,-74.073,-74.195,-74.195,4.3148
-72.362,-69.929,-70.04,-73.218,-73.095,-73.708,4.3394
-72.608,-70.077,-70.407,-73.585,-73.585,-73.462,4.366
-72.24,-69.485,-69.92,-73.218,-73.34,-73.462,4.3926
-72.362,-69.781,-70.04,-73.34,-73.34,-73.708,4.4192
-72.852,-70.373,-70.653,-74.073,-73.95,-74.317,4.4438
-72.485,-70.077,-70.285,-73.708,-73.83,-74.073,4.4704
-72.485,-70.225,-70.407,-73.708,-73.95,-73.83,4.497
-72.73,-69.929,-70.162,-73.83,-73.95,-73.83,4.5237
-72.485,-69.781,-70.04,-73.708,-73.585,-73.708,4.5503
-72.972,-70.225,-70.775,-74.44,-74.317,-74.808,4.5749
-72.608,-69.929,-70.285,-73.95,-73.83,-74.195,4.6015
-73.095,-70.373,-70.53,-73.83,-73.95,-74.195,4.6282
-73.218,-70.518,-70.407,-73.585,-73.708,-73.95,4.6547
-72.73,-69.929,-69.92,-73.34,-73.218,-73.462,4.6793
-72.972,-70.077,-70.407,-73.708,-73.83,-74.44,4.7059
-73.095,-70.225,-70.775,-73.95,-74.073,-74.195,4.7325
-73.095,-70.225,-70.775,-73.95,-74.195,-74.44,4.7591
-73.34,-70.814,-71.14,-73.95,-73.95,-74.195,4.7858
-73.218,-70.666,-70.775,-74.073,-73.95,-74.195,4.8104
-73.708,-71.11,-71.14,-74.562,-74.685,-74.685,4.837
-73.462,-70.814,-71.017,-74.44,-74.317,-74.685,4.8636
-73.095,-70.373,-70.775,-74.317,-74.317,-74.562,4.8902
-72.972,-70.225,-70.653,-74.073,-73.83,-73.95,4.9148
-73.095,-70.225,-70.653,-74.195,-73.95,-74.073,4.9414
-72.972,-70.373,-70.653,-74.195,-73.95,-74.073,4.9681
-72.972,-70.373,-70.653,-73.95,-74.195,-74.44,4.9947
-73.462,-70.962,-71.017,-74.44,-74.44,-74.562,5.0213
-73.218,-70.666,-70.53,-73.83,-73.83,-74.317,5.0459
-72.972,-70.077,-70.653,-73.83,-73.708,-73.95,5.0725
-73.095,-70.373,-71.017,-74.562,-74.562,-74.808,5.0991
-73.095,-70.518,-71.14,-74.317,-74.685,-74.808,5.1258
-73.095,-70.814,-71.385,-74.44,-74.685,-74.685,5.1503
-73.095,-70.518,-70.775,-74.317,-74.195,-74.562,5.1769
-72.972,-70.225,-70.653,-74.195,-74.073,-74.195,5.2035
-72.852,-69.192,-69.92,-74.073,-74.195,-74.44,5.2302
-73.34,-69.485,-70.285,-74.317,-74.44,-74.44,5.2547
-73.462,-69.781,-70.53,-74.44,-74.44,-74.562,5.2814
-73.83,-70.077,-70.898,-74.685,-74.44,-74.808,5.3079
-73.34,-69.781,-70.775,-74.317,-74.195,-74.195,5.3346
-73.83,-70.518,-71.017,-74.808,-74.562,-74.562,5.3612
-73.708,-70.518,-70.898,-74.317,-74.44,-74.44,5.3858
-73.585,-70.518,-71.017,-74.073,-73.95,-74.195,5.4124
-73.95,-70.373,-71.263,-74.562,-74.44,-74.685,5.439
-73.34,-70.077,-71.017,-74.073,-73.95,-74.44,5.4657
-73.708,-70.518,-71.14,-74.317,-74.317,-74.44,5.4902
-73.708,-70.225,-71.017,-74.317,-74.44,-74.44,5.5169
-73.462,-70.518,-71.14,-74.44,-74.317,-74.562,5.5435
-73.585,-70.666,-71.263,-74.927,-74.808,-74.927,5.5701
-73.095,-70.373,-70.775,-74.317,-74.195,-74.562,5.5947
-73.708,-70.666,-71.263,-74.808,-74.685,-74.927,5.6213
-73.34,-70.373,-70.898,-74.317,-74.317,-74.317,5.6479
-73.34,-70.518,-70.775,-74.562,-74.073,-74.195,5.6745
-73.585,-70.518,-70.898,-74.562,-74.317,-74.808,5.7012
-73.34,-70.518,-71.017,-74.317,-74.073,-74.562,5.7257
-74.195,-71.699,-72.118,-75.54,-75.295,-75.418,5.7524
-73.462,-70.814,-71.263,-74.317,-74.44,-74.317,5.779
-73.585,-70.814,-71.14,-74.44,-74.195,-74.44,5.8056
-73.34,-70.225,-71.017,-74.317,-74.195,-74.317,5.8303
-73.095,-70.373,-71.017,-74.317,-74.317,-74.808,5.8568
-73.708,-70.962,-71.752,-75.05,-75.418,-75.785,5.8834
-73.585,-70.962,-71.14,-74.44,-74.685,-75.05,5.91
-73.95,-71.258,-71.508,-74.808,-74.685,-75.05,5.9346
-73.95,-71.258,-71.385,-74.685,-74.685,-74.808,5.9612
-73.585,-70.962,-71.017,-74.562,-74.562,-74.927,5.9878
-73.34,-70.373,-71.14,-74.562,-74.562,-74.685,6.0144
-73.95,-71.11,-71.385,-74.927,-74.927,-75.172,6.0411
-74.073,-71.258,-71.752,-74.927,-74.685,-74.685,6.0657
-73.95,-71.406,-71.508,-74.927,-74.685,-74.808,6.0923
-74.073,-71.258,-71.63,-75.05,-74.685,-74.927,6.119
-73.708,-70.962,-71.63,-74.927,-74.685,-74.927,6.1455
-73.83,-71.406,-71.63,-74.808,-74.685,-74.808,6.1701
-73.83,-70.962,-71.385,-74.44,-74.44,-74.927,6.1967
-73.83,-70.962,-71.017,-74.44,-74.317,-74.44,6.2234
-73.708,-70.518,-71.017,-74.44,-74.44,-74.685,6.2499
-73.462,-70.666,-71.14,-74.562,-74.562,-74.685,6.2746
-73.95,-71.258,-71.508,-74.927,-75.05,-75.295,6.3012
-73.708,-71.11,-71.263,-74.44,-74.562,-74.808,6.3278
-73.83,-71.11,-71.263,-74.562,-74.562,-74.808,6.3544
-73.83,-70.962,-71.508,-74.562,-74.317,-74.685,6.381
-74.195,-71.554,-72.24,-75.662,-75.662,-75.785,6.4056
-73.585,-70.962,-71.508,-74.808,-74.808,-75.295,6.4323
-73.462,-70.666,-71.508,-74.685,-74.562,-75.05,6.4589
-73.708,-71.258,-71.508,-74.927,-74.808,-75.172,6.4855
-73.83,-71.406,-71.63,-75.172,-74.927,-75.172,6.51
-73.83,-71.258,-71.385,-75.05,-75.05,-74.927,6.5367
-74.073,-71.406,-71.63,-75.172,-75.172,-75.172,6.5633
-73.708,-71.11,-71.508,-74.685,-74.685,-75.05,6.5899
-73.708,-70.962,-71.14,-74.562,-74.44,-74.927,6.6146
-73.708,-70.814,-71.14,-74.685,-74.808,-75.05,6.6411
-74.44,-71.847,-71.875,-75.05,-75.172,-75.295,6.6677
-73.83,-71.258,-71.63,-74.808,-75.05,-74.927,6.6943
-74.195,-71.847,-71.875,-74.808,-74.685,-74.685,6.721
-74.317,-71.699,-71.875,-75.418,-75.172,-75.662,6.7455
-74.073,-71.11,-71.63,-74.808,-74.927,-75.172,6.7723
-74.195,-71.554,-71.875,-75.418,-75.54,-75.418,6.7988
-73.95,-71.11,-71.752,-74.927,-74.927,-74.927,6.8255
-73.585,-70.814,-71.508,-74.685,-74.562,-74.808,6.85
-74.195,-71.258,-71.508,-74.927,-74.808,-75.295,6.8766
-74.073,-71.258,-71.508,-75.172,-75.05,-75.54,6.9032
-74.317,-71.699,-71.752,-75.295,-75.172,-74.927,6.9299
-74.317,-71.406,-71.508,-75.05,-75.172,-75.05,6.9544
-73.585,-70.814,-71.263,-74.562,-74.317,-74.44,6.9811
-73.83,-71.11,-71.752,-75.05,-74.685,-74.927,7.0077
-73.83,-71.11,-71.63,-74.562,-74.562,-75.05,7.0343
-73.83,-71.554,-71.875,-75.05,-75.295,-75.418,7.0589
-73.83,-70.962,-71.385,-74.562,-69.062,-70.898,7.0855
-73.462,-71.11,-71.385,-74.685,-63.197,-63.075,7.1121
-73.708,-71.258,-71.508,-74.808,-57.332,-56.478,7.1388
-73.708,-70.962,-71.63,-74.927,-51.225,-49.88,7.1655
-74.195,-71.11,-71.508,-74.927,-45.602,-43.282,7.19
-73.708,-70.666,-71.263,-74.808,-40.227,-37.418,7.2166
-73.708,-70.814,-71.385,-75.172,-35.34,-31.795,7.2432
-73.95,-71.258,-71.752,-75.54,-30.94,-27.275,7.2698
-74.195,-71.554,-71.875,-75.54,-26.543,-23.12,7.2944
-74.195,-71.554,-71.63,-75.295,-22.875,-19.332,7.321
-74.195,-70.962,-71.995,-75.54,-20.432,-19.455,7.3476
-74.562,-71.554,-72.24,-75.785,-18.355,-17.745,7.3742
-74.073,-70.962,-71.875,-75.418,-17.01,-20.065,7.3988
-74.685,-71.406,-72.24,-76.028,-19.7,-19.455,7.4254
-77.25,-74.358,-74.927,-78.35,-19.7,-19.455,7.4521
-74.562,-71.554,-71.995,-75.54,-17.745,-15.91,7.4787
-74.44,-71.406,-71.752,-75.295,-17.5,-15.668,7.5053
-74.562,-71.554,-71.995,-75.54,-15.79,-17.865,7.5299
-74.562,-71.258,-71.875,-75.418,-16.645,-17.5,7.5565
-74.317,-71.11,-71.875,-75.295,-17.5,-16.768,7.5831
-74.562,-71.406,-71.875,-75.295,-16.887,-16.155,7.6097
-74.317,-71.11,-72.118,-75.172,-16.4,-14.2,7.6343
-74.808,-71.995,-72.24,-75.418,-16.277,-14.445,7.6609
-74.562,-71.554,-72.24,-75.662,-14.69,-16.155,7.6876
-74.685,-71.554,-72.362,-75.785,-16.523,-15.178,7.7143
-74.317,-71.699,-72.118,-75.54,-15.91,-14.568,7.7388
-74.44,-71.258,-72.362,-75.905,-15.422,-14.2,7.7654
-74.562,-71.554,-72.118,-75.785,-15.178,-12.735,7.792
-74.808,-71.554,-72.24,-75.905,-13.955,-14.932,7.8186
-74.317,-71.11,-71.752,-75.418,-13.345,-14.322,7.8432
-74.685,-71.847,-72.24,-75.905,-15.3,-13.955,7.8698
-74.562,-71.699,-72.118,-75.662,-14.568,-13.345,7.8964
-74.562,-71.847,-72.485,-75.785,-13.955,-11.635,7.9231
-74.685,-71.847,-72.485,-75.418,-13.713,-12.122,7.9497
-74.685,-71.847,-72.362,-75.662,-12.245,-13.713,7.9743
-74.685,-71.406,-72.24,-75.418,-13.222,-12.977,8.0009
-74.317,-71.406,-72.118,-75.54,-14.077,-13.1,8.0275
-74.195,-71.258,-72.118,-75.54,-13.59,-12.612,8.0541
-74.317,-71.406,-71.875,-75.418,-13.1,-11.145,8.0787
-74.685,-71.847,-72.362,-75.662,-13.1,-13.222,8.1053
-74.685,-71.847,-72.24,-75.905,-11.512,-12.857,8.132
-74.685,-71.995,-72.24,-75.54,-13.345,-12.49,8.1586
-74.317,-71.258,-71.752,-75.172,-12.857,-12,8.1832
-74.808,-71.699,-72.485,-75.905,-12.49,-10.902,8.2098
-74.685,-71.847,-72.485,-75.785,-12.49,-11.635,8.2364
-74.927,-71.699,-72.608,-76.028,-12.367,-12.49,8.2631
-74.44,-71.554,-72.118,-75.54,-11.145,-11.88,8.2876
-74.808,-71.995,-72.608,-76.028,-12.735,-11.88,8.3142
-74.808,-71.847,-72.24,-75.785,-12.122,-11.39,8.3408
-75.172,-72.291,-72.362,-76.028,-11.758,-10.045,8.3674
-74.808,-71.847,-72.24,-75.662,-11.635,-12.122,8.3941
-74.685,-71.554,-72.24,-75.662,-10.168,-11.39,8.4186
-74.927,-71.699,-72.24,-75.662,-11.023,-11.145,8.4453
-75.172,-72.439,-72.852,-76.028,-11.635,-11.39,8.4719
-75.785,-72.881,-73.462,-76.517,-11.145,-11.635,8.4985
-75.172,-72.143,-72.852,-75.54,-10.78,-10.902,8.5231
-74.927,-71.995,-72.362,-75.418,-10.657,-11.023,8.5497
-75.05,-71.847,-72.485,-75.662,-10.78,-11.267,8.5763
-74.927,-71.699,-72.485,-75.418,-11.145,-11.145,8.6029
-74.927,-71.554,-72.24,-75.785,-10.902,-11.023,8.6275
-74.195,-71.11,-71.752,-75.05,-10.535,-11.023,8.6542
-74.685,-71.847,-72.24,-75.662,-10.78,-11.512,8.6807
-74.562,-71.699,-72.118,-75.662,-10.535,-11.023,8.7074
-74.685,-71.699,-72.24,-75.785,-9.8025,-10.78,8.732
-75.295,-72.439,-73.095,-76.15,-10.78,-10.902,8.7586
-74.562,-71.554,-72.362,-75.662,-10.535,-10.535,8.7852
-75.05,-71.995,-72.852,-76.15,-10.78,-10.902,8.8119
-74.195,-71.258,-72.118,-75.785,-10.657,-11.023,8.8385
-74.44,-71.699,-72.24,-75.785,-10.535,-10.78,8.863
-74.44,-71.699,-72.24,-75.785,-10.657,-10.78,8.8896
-74.44,-71.554,-71.995,-75.662,-10.29,-10.657,8.9162
-74.685,-71.995,-72.485,-76.028,-10.535,-10.657,8.9429
-74.562,-71.847,-72.118,-75.54,-10.29,-10.535,8.9675
-74.44,-71.406,-71.995,-75.172,-10.29,-10.657,8.9941
-74.808,-71.847,-72.118,-75.54,-10.535,-10.535,9.0207
-74.685,-71.699,-72.608,-75.785,-10.535,-10.657,9.0474
-74.317,-71.258,-72.118,-75.295,-10.412,-10.412,9.0719
-74.927,-67.863,-72.972,-76.15,-10.78,-11.267,9.0985
-74.44,-53.982,-61.61,-75.295,-10.168,-10.535,9.1251
-75.54,-43.204,-53.79,-76.15,-10.168,-10.657,9.1518
-75.905,-34.791,-46.457,-76.028,-10.535,-10.535,9.1763
-76.395,-28.737,-39.983,-76.763,-10.29,-10.657,9.203
-76.883,-23.716,-34.362,-77.127,-10.045,-10.657,9.2296
-77.127,-22.239,-29.475,-77.25,-9.925,-10.535,9.2562
-77.618,-20.614,-25.32,-77.86,-9.925,-10.045,9.2808
-77.618,-19.433,-21.655,-77.618,-9.925,-10.168,9.3074
-78.105,-16.926,-18.965,-77.86,-9.925,-10.168,9.334
-78.35,-19.14,-16.887,-78.228,-10.045,-10.168,9.3607
-78.96,-17.811,-18.355,-78.838,-10.29,-10.412,9.3873
-78.838,-16.334,-16.4,-78.595,-10.045,-10.412,9.4118
-79.328,-17.071,-18.355,-79.082,-10.168,-10.168,9.4385
-79.205,-14.708,-17.255,-79.082,-10.045,-10.045,9.4651
-79.573,-16.334,-16.887,-79.45,-10.168,-10.168,9.4917
-79.45,-15.448,-15.055,-78.96,-10.168,-10.168,9.5163
-79.938,-14.415,-16.887,-79.815,-10.168,-10.412,9.5429
-80.06,-13.823,-15.668,-79.695,-9.8025,-10.045,9.5695
-80.305,-13.086,-15.422,-79.938,-9.8025,-10.045,9.5962
-80.428,-12.494,-13.59,-80.183,-9.8025,-10.168,9.6207
-80.55,-12.79,-15.668,-80.305,-9.8025,-10.168,9.6473
-80.915,-12.642,-14.568,-80.55,-9.925,-10.29,9.6739
-80.793,-12.201,-14.2,-80.428,-9.8025,-10.045,9.7006
-80.915,-12.053,-12.367,-80.672,-9.8025,-10.045,9.7251
-81.16,-14.119,-14.445,-80.915,-9.8025,-10.168,9.7518
-81.282,-11.757,-13.467,-81.038,-10.29,-10.412,9.7784
-81.528,-11.905,-13.222,-81.405,-10.045,-10.29,9.805
-80.915,-11.757,-12.612,-80.915,-9.925,-9.925,9.8296
-81.16,-11.461,-13.345,-81.038,-9.925,-10.045,9.8562
-80.915,-13.086,-12.367,-81.16,-9.925,-10.045,9.8828
-81.282,-11.905,-12.735,-81.773,-10.045,-10.412,9.9095
-80.55,-11.609,-12,-81.16,-9.8025,-9.925,9.9341
-80.915,-11.609,-11.88,-81.528,-9.925,-10.168,9.9606
-81.282,-11.757,-12.122,-81.773,-10.168,-10.29,9.9873
-81.16,-14.267,-11.758,-81.892,-10.045,-10.168,10.014
-81.16,-11.313,-11.512,-81.892,-10.045,-10.29,10.038
-81.282,-11.313,-10.78,-81.892,-9.925,-10.29,10.065
-81.282,-11.757,-11.512,-81.773,-10.168,-10.535,10.092
-81.16,-11.609,-11.145,-81.892,-10.29,-10.168,10.118
-80.672,-13.823,-10.657,-81.282,-9.8025,-9.925,10.145
-81.16,-11.017,-9.8025,-81.773,-9.925,-10.412,10.17
-81.65,-11.609,-11.267,-81.773,-10.045,-10.412,10.196
-81.038,-11.461,-10.535,-81.405,-9.8025,-10.29,10.223
-81.038,-11.757,-10.29,-81.405,-10.045,-10.168,10.249
-81.038,-14.267,-9.19,-81.528,-10.045,-10.168,10.274
-80.915,-10.872,-10.412,-81.528,-10.045,-10.29,10.301
-80.915,-11.165,-10.29,-81.528,-10.168,-10.412,10.327
-80.672,-11.609,-10.29,-81.16,-10.045,-10.29,10.354
-80.793,-11.461,-9.5575,-81.405,-9.925,-10.412,10.378
-80.793,-14.267,-10.29,-81.282,-9.925,-10.168,10.405
-80.793,-11.165,-10.168,-81.282,-10.045,-10.29,10.432
-80.915,-11.313,-10.29,-81.528,-10.29,-10.412,10.458
-80.55,-11.757,-10.168,-81.405,-11.145,-10.29,10.483
-81.16,-11.905,-10.657,-82.015,-10.535,-10.657,10.509
-80.428,-11.165,-10.168,-81.405,-10.045,-10.29,10.536
-80.915,-11.905,-10.412,-81.773,-10.045,-10.412,10.563
-80.428,-11.165,-10.168,-81.282,-10.045,-10.412,10.587
-80.793,-11.609,-10.657,-81.528,-10.29,-10.29,10.614
-80.55,-11.609,-10.412,-81.405,-10.045,-10.168,10.641
-80.55,-14.119,-10.535,-81.528,-10.29,-10.535,10.667
-80.305,-13.382,-10.045,-80.915,-9.8025,-10.045,10.692
-80.672,-11.461,-10.29,-74.195,-8.825,-10.412,10.718
-80.183,-11.461,-10.045,-67.965,-7.48,-7.9675,10.745
-80.915,-11.905,-10.29,-63.565,-6.87,-6.87,10.772
-80.55,-11.609,-10.045,-63.32,-6.135,-5.8925,10.796
-80.305,-13.527,-10.045,-61,-5.525,-5.1575,10.823
-81.405,-11.165,-10.29,-57.455,-5.28,-5.035,10.849
-80.793,-11.757,-10.045,-55.868,-4.18,-4.3025,10.876
-80.672,-11.609,-10.168,-56.968,-3.815,-3.815,10.903
-80.672,-12.201,-10.168,-55.255,-3.4475,-3.4475,10.927
-80.672,-14.415,-10.045,-53.79,-3.2025,-2.8375,10.954
-81.038,-11.017,-10.168,-52.69,-3.08,-2.715,10.98
-80.672,-11.757,-10.045,-50.002,-2.715,-2.3475,11.007
-80.672,-11.757,-9.925,-52.08,-2.225,-2.47,11.032
-80.915,-11.609,-9.925,-51.835,-1.9825,-2.225,11.058
-80.915,-14.267,-9.925,-51.59,-1.9825,-2.225,11.085
-81.528,-11.461,-10.168,-52.322,-2.225,-2.1025,11.112
-80.672,-11.461,-10.29,-50.735,-1.615,-1.4925,11.136
-81.038,-11.757,-10.045,-51.712,-1.37,-1.4925,11.163
-82.138,-12.053,-10.168,-52.203,-1.4925,-1.615,11.189
-81.038,-13.971,-9.8025,-51.345,-1.2475,-1.4925,11.216
-81.038,-10.872,-11.023,-51.468,-1.4925,-1.37,11.241
-80.672,-11.017,-9.8025,-51.225,-1.37,-1.2475,11.267
-80.672,-11.609,-9.68,-50.98,-1.005,-1.125,11.294
-81.16,-11.757,-9.925,-51.225,-1.005,-1.005,11.32
-80.672,-14.119,-10.657,-51.102,-1.005,-1.005,11.345
-82.26,-11.757,-10.535,-52.203,-1.615,-1.125,11.372
-80.915,-11.017,-9.925,-51.345,-1.005,-1.005,11.398
-81.038,-11.757,-9.925,-51.225,-1.2475,-1.125,11.425
-80.915,-11.757,-9.8025,-51.225,-0.8825,-0.8825,11.449
-80.915,-14.415,-9.8025,-51.345,-1.2475,-1.2475,11.476
-81.282,-11.313,-9.925,-51.345,-0.76,-0.8825,11.503
-80.55,-11.313,-9.68,-51.102,-1.005,-0.6375,11.529
-80.672,-11.609,-9.68,-50.98,-0.76,-0.76,11.554
-80.428,-11.609,-9.5575,-50.735,-0.6375,-0.76,11.58
-80.305,-14.415,-9.8025,-50.735,-0.76,-0.76,11.607
-80.793,-11.461,-9.8025,-51.225,-0.76,-0.6375,11.634
-80.55,-11.313,-9.925,-51.102,-1.005,-1.125,11.658
-80.793,-11.609,-10.168,-51.102,-0.8825,-1.005,11.685
-80.915,-11.905,-9.925,-51.225,-1.125,-1.125,11.712
-80.305,-11.461,-9.5575,-50.735,-0.6375,-0.76,11.738
-81.528,-12.053,-10.29,-52.203,-1.4925,-1.2475,11.763
-80.305,-11.165,-9.8025,-50.98,-0.8825,-1.125,11.789
-80.672,-11.461,-9.68,-50.858,-0.6375,-0.8825,11.816
-80.06,-11.757,-9.5575,-50.735,-0.76,-0.6375,11.843
-80.305,-11.609,-9.68,-50.735,-0.8825,-0.76,11.867
-80.55,-12.201,-9.68,-51.225,-0.8825,-1.125,11.894
-79.938,-11.017,-9.5575,-50.612,-0.76,-1.005,11.92
-80.305,-11.609,-9.68,-50.858,-0.6375,-0.76,11.947
-80.672,-11.905,-9.8025,-51.102,-1.005,-0.8825,11.974
-80.428,-14.415,-9.8025,-51.59,-1.005,-0.76,11.998
-80.672,-11.313,-9.8025,-51.102,-0.8825,-0.8825,12.025
-80.305,-10.872,-9.68,-51.102,-1.125,-1.125,12.052
-80.06,-11.461,-9.435,-50.612,-0.6375,-0.8825,12.078
-80.183,-11.609,-9.8025,-50.735,-0.76,-0.76,12.103
-80.183,-11.165,-9.5575,-50.735,-0.6375,-0.8825,12.129
-80.915,-13.675,-10.045,-51.958,-1.2475,-1.4925,12.156
-80.183,-11.017,-9.68,-50.858,-0.8825,-1.125,12.183
-80.183,-11.609,-9.5575,-50.612,-0.6375,-0.8825,12.207
-80.183,-11.313,-9.5575,-51.102,-0.76,-0.76,12.234
-80.183,-11.609,-9.68,-51.345,-1.125,-0.76,12.26
-80.06,-13.382,-9.5575,-51.102,-1.005,-1.005,12.287
-79.938,-10.872,-10.168,-50.98,-0.76,-0.8825,12.312
-79.815,-11.165,-9.68,-50.858,-0.76,-0.76,12.338
-79.815,-11.609,-9.68,-51.958,-0.76,-0.6375,12.365
-79.695,-12.053,-9.925,-51.225,-1.125,-1.125,12.391
-79.45,-13.382,-10.168,-50.858,-0.76,-0.8825,12.416
-79.938,-11.017,-9.8025,-51.102,-0.8825,-1.005,12.443
-79.45,-11.313,-9.435,-50.735,-0.6375,-0.6375,12.469
-79.695,-11.757,-9.68,-50.858,-0.6375,-0.8825,12.496
-79.45,-12.201,-11.145,-50.98,-1.125,-0.8825,12.52
-79.695,-14.119,-9.925,-50.98,-1.125,-1.125,12.547
-80.183,-11.017,-9.925,-51.468,-1.2475,-1.37,12.574
-79.573,-11.461,-9.5575,-50.98,-0.8825,-0.76,12.6
-79.938,-11.461,-9.435,-50.98,-0.6375,-0.76,12.625
-79.815,-11.461,-9.5575,-50.858,-0.76,-1.005,12.652
-79.938,-13.971,-9.68,-50.98,-0.76,-1.005,12.678
-79.45,-10.872,-9.68,-50.735,-1.005,-0.8825,12.705
-79.815,-11.313,-9.435,-51.59,-0.8825,-0.76,12.729
-79.695,-11.609,-9.68,-51.225,-1.005,-0.8825,12.756
-79.815,-11.313,-9.68,-50.98,-0.76,-1.005,12.783
-79.695,-14.119,-9.5575,-50.98,-0.6375,-0.76,12.809
-79.938,-11.905,-11.145,-51.102,-1.005,-0.8825,12.834
-75.05,-11.313,-10.045,-51.102,-0.8825,-1.005,12.86
-66.62,-8.3616,-7.8475,-51.102,-1.125,-1.2475,12.887
-63.075,-6.7364,-6.38,-50.735,-0.6375,-0.8825,12.914
-57.945,-5.7032,-5.6475,-51.345,-1.125,-0.8825,12.938
-55.012,-4.3741,-4.5475,-50.858,-0.8825,-0.8825,12.965
-55.868,-3.785,-4.18,-51.225,-0.8825,-1.125,12.991
-52.812,-2.8969,-3.57,-50.735,-0.6375,-0.76,13.018
-51.835,-2.0118,-2.96,-50.98,-0.76,-1.125,13.043
-51.468,-1.5677,-2.3475,-50.612,-0.6375,-1.005,13.069
-50.367,-1.8637,-1.86,-50.858,-0.76,-0.8825,13.096
-51.345,-1.4227,-1.7375,-50.858,-1.005,-1.005,13.123
-50.98,-1.2747,-1.4925,-50.98,-1.005,-1.125,13.147
-50.858,-0.83062,-1.005,-50.735,-0.6375,-0.8825,13.174
-51.345,-0.83062,-0.8825,-50.858,-0.6375,-0.76,13.2
-51.102,-1.1267,-1.2475,-51.345,-0.76,-0.76,13.227
-51.225,-1.1267,-1.37,-51.225,-1.2475,-1.37,13.252
-50.858,-0.97865,-0.8825,-50.612,-0.8825,-1.005,13.278
-50.858,-0.6826,-0.6375,-50.858,-0.76,-0.76,13.305
-51.225,-0.6826,-0.6375,-52.203,-0.6375,-0.76,13.331
-51.102,-1.2747,-0.8825,-51.345,-0.8825,-0.6375,13.358
-50.49,-0.6826,-0.515,-50.735,-1.005,-1.005,13.383
-50.98,-0.83062,-0.8825,-50.98,-0.3925,-0.76,13.409
-50.735,-0.97865,-0.8825,-50.858,-0.76,-0.76,13.436
-50.735,-0.83062,-0.76,-51.958,-0.76,-0.8825,13.462
-50.735,-0.6826,-0.6375,-50.98,-1.005,-1.005,13.487
-50.858,-0.97865,-0.6375,-51.102,-1.125,-0.8825,13.514
-50.248,-0.53458,-0.3925,-50.612,-0.6375,-0.76,13.54
-50.367,-0.53458,-0.3925,-50.612,-0.76,-0.6375,13.567
-51.225,-1.1267,-1.005,-51.835,-0.8825,-1.005,13.591
-50.858,-1.1267,-1.005,-51.345,-1.005,-0.8825,13.618
-50.858,-0.97865,-0.8825,-50.98,-0.76,-1.125,13.645
-50.735,-0.97865,-0.6375,-51.225,-1.005,-0.8825,13.671
-50.612,-0.83062,-0.515,-50.98,-0.8825,-0.76,13.7
-53.058,-2.0118,-1.4925,-53.422,-1.615,-1.615,13.723
-50.612,-0.83062,-0.515,-50.98,-0.8825,-1.125,13.749
-51.958,-1.5677,-1.2475,-52.322,-1.2475,-1.37,13.776
-50.735,-0.97865,-0.515,-50.98,-1.005,-0.76,13.8
-50.612,-0.97865,-0.515,-51.345,-0.76,-0.76,13.827
-50.49,-1.1267,-0.6375,-51.225,-1.005,-0.76,13.854
-50.49,-0.97865,-0.76,-50.735,-0.6375,-1.005,13.88
-50.49,-0.83062,-0.515,-50.735,-1.005,-0.6375,13.905
-51.468,-0.83062,-0.6375,-51.345,-1.005,-1.125,13.931
-50.612,-0.6826,-0.515,-51.225,-0.76,-1.125,13.958
-51.468,-1.1267,-1.125,-51.835,-1.125,-1.2475,13.985
-50.858,-0.97865,-0.6375,-51.102,-0.76,-1.005,14.009
-50.49,-0.6826,-0.515,-50.858,-0.8825,-1.005,14.036
-50.858,-0.83062,-0.6375,-50.858,-0.515,-0.76,14.062
-50.735,-0.83062,-0.6375,-50.735,-0.8825,-0.8825,14.089
-50.735,-0.83062,-0.76,-51.102,-1.005,-1.2475,14.114
-50.612,-0.53458,-0.3925,-50.735,-0.6375,-0.8825,14.14
-50.49,-0.6826,-0.3925,-50.858,-0.76,-0.76,14.167
-50.612,-0.6826,-0.515,-51.59,-0.76,-0.76,14.194
-50.858,-0.97865,-0.8825,-51.468,-1.2475,-1.2475,14.218
-50.735,-0.53458,-0.515,-50.735,-0.515,-1.005,14.245
-50.612,-0.53458,-0.515,-50.858,-0.3925,-0.76,14.271
-50.248,-0.53458,-0.27,-50.367,-0.515,-0.6375,14.298
-50.49,-0.6826,-0.76,-51.712,-1.005,-0.8825,14.323
-50.367,-0.53458,-0.3925,-50.98,-0.8825,-1.005,14.349
-50.367,-0.53458,-0.515,-50.735,-0.6375,-0.76,14.376
-50.735,-0.6826,-0.515,-51.102,-0.515,-0.8825,14.402
-50.735,-0.83062,-0.8825,-51.345,-0.76,-0.8825,14.427
-50.735,-0.97865,-0.6375,-50.98,-1.005,-1.005,14.454
-50.248,-0.53458,-0.515,-50.735,-0.6375,-0.76,14.48
-47.435,-0.24156,-0.3925,-50.858,-0.76,-1.005,14.507
-41.815,-0.83062,-0.8825,-44.747,-0.6375,-0.76,14.531
-36.072,-0.97865,-0.6375,-39.86,-0.76,-0.76,14.558
-34.972,-1.2747,-0.8825,-35.95,-0.76,-0.8825,14.585
-33.017,-0.6826,-0.6375,-34.85,-0.76,-1.005,14.611
-32.285,-0.83062,-0.76,-31.673,-1.125,-1.005,14.636
-31.552,-0.53458,-0.76,-30.695,-0.76,-0.8825,14.662
-30.695,-1.1267,-0.8825,-31.673,-0.8825,-0.76,14.689
-33.14,-0.83062,-0.76,-31.43,-0.8825,-1.125,14.716
-31.795,-0.6826,-0.6375,-31.063,-1.005,-0.76,14.74
-31.673,-0.97865,-1.005,-31.43,-1.125,-1.005,14.767
-31.552,-0.6826,-0.8825,-31.063,-0.76,-0.76,14.794
-31.185,-0.38656,-0.27,-30.817,-0.6375,-0.8825,14.82
-31.063,-0.6826,-0.515,-30.695,-0.6375,-0.515,14.845
-31.063,-0.6826,-0.76,-30.817,-0.8825,-0.8825,14.871
-30.94,-0.53458,-0.76,-30.695,-0.76,-0.6375,14.898
-30.575,-0.83062,-0.6375,-30.695,-0.76,-1.2475,14.925
-30.94,-0.97865,-0.515,-30.453,-0.76,-1.005,14.949
-30.817,-0.97865,-0.76,-30.817,-0.76,-0.8825,14.976
-30.817,-0.97865,-0.8825,-30.817,-1.005,-0.76,15.002
-30.817,-1.1267,-0.76,-31.063,-1.125,-1.005,15.029
-30.94,-1.1267,-0.76,-30.94,-1.005,-0.8825,15.054
-30.575,-0.83062,-0.515,-30.453,-0.8825,-1.125,15.08
-30.695,-0.97865,-0.6375,-30.575,-0.8825,-0.8825,15.107
-30.695,-0.97865,-0.76,-30.453,-0.76,-0.6375,15.133
-30.94,-1.2747,-0.76,-30.695,-0.76,-0.8825,15.158
-30.695,-0.97865,-0.6375,-30.575,-1.125,-1.2475,15.185
-30.453,-0.83062,-0.6375,-30.453,-0.76,-1.125,15.211
-30.453,-0.6826,-0.6375,-30.453,-0.76,-0.76,15.238
-30.575,-1.1267,-0.515,-30.453,-0.76,-0.76,15.263
-30.695,-1.1267,-0.76,-30.94,-1.125,-1.125,15.289
-30.453,-0.83062,-0.6375,-30.453,-1.125,-1.005,15.316
-30.453,-0.97865,-0.6375,-30.453,-0.3925,-0.8825,15.342
-30.207,-0.83062,-0.3925,-30.207,-0.6375,-0.76,15.369
-30.575,-1.1267,-0.6375,-31.185,-0.6375,-0.76,15.394
-30.94,-0.97865,-0.76,-31.063,-1.2475,-1.2475,15.42
-30.33,-0.6826,-0.6375,-30.453,-0.76,-0.8825,15.447
-30.207,-0.53458,-0.3925,-30.085,-0.515,-0.515,15.473
-30.33,-0.6826,-0.515,-30.33,-0.76,-0.6375,15.498
-30.817,-0.83062,-0.515,-30.453,-0.76,-0.8825,15.525
-30.085,-0.6826,-0.6375,-30.33,-0.8825,-0.8825,15.551
-30.453,-0.83062,-0.8825,-30.453,-0.76,-1.125,15.578
-30.207,-0.6826,-0.3925,-30.33,-0.8825,-0.76,15.602
-30.33,-0.53458,-0.3925,-30.33,-0.76,-1.005,15.629
-30.33,-0.6826,-0.6375,-30.695,-0.76,-0.8825,15.656
-30.453,-0.6826,-0.6375,-30.453,-0.6375,-1.125,15.682
-30.33,-0.83062,-0.76,-30.575,-0.76,-0.76,15.707
-30.453,-0.6826,-0.6375,-30.695,-0.8825,-0.76,15.733
-30.453,-0.6826,-0.515,-30.453,-0.76,-0.8825,15.76
-30.33,-0.83062,-0.76,-30.695,-0.6375,-1.125,15.787
-30.817,-1.1267,-0.6375,-30.695,-0.8825,-1.005,15.811
-30.453,-0.6826,-0.3925,-30.453,-1.005,-0.76,15.838
-30.33,-0.6826,-0.515,-30.453,-1.005,-0.8825,15.865
-30.453,-0.6826,-0.76,-30.695,-0.8825,-1.005,15.891
-30.33,-0.6826,-0.76,-30.453,-0.76,-0.8825,15.916
-30.33,-0.53458,-0.3925,-30.085,-0.515,-0.6375,15.942
-30.33,-0.83062,-0.6375,-30.817,-1.125,-1.005,15.969
-30.207,-0.53458,-0.6375,-30.453,-0.8825,-1.005,15.996
-30.817,-0.97865,-1.005,-30.817,-0.8825,-1.005,16.02
-30.085,-0.38656,-0.3925,-30.453,-0.76,-0.8825,16.047
-30.695,-0.83062,-0.76,-30.817,-0.76,-1.005,16.073
-30.085,-0.38656,-0.3925,-30.207,-0.6375,-0.6375,16.1
-30.33,-0.6826,-0.76,-30.817,-0.6375,-0.76,16.125
-30.695,-0.83062,-1.005,-30.817,-1.125,-1.005,16.151
-30.085,-0.53458,-0.3925,-30.33,-0.76,-0.8825,16.178
-30.695,-0.83062,-0.6375,-30.575,-0.76,-0.8825,16.205
-30.33,-0.24156,-0.6375,-30.33,-0.6375,-0.76,16.229
-30.575,-0.83062,-0.8825,-30.94,-0.8825,-0.8825,16.256
-30.207,-0.53458,-0.515,-30.453,-0.8825,-1.005,16.282
-30.207,-0.53458,-0.3925,-30.453,-0.6375,-0.76,16.309
-30.207,-0.6826,-0.6375,-30.575,-0.6375,-0.8825,16.334
-30.453,-0.83062,-0.8825,-30.575,-0.76,-1.005,16.36
-30.207,-0.6826,-0.515,-30.575,-0.6375,-0.8825,16.387
-30.207,-0.6826,-0.6375,-30.453,-1.005,-0.8825,16.413
-30.33,-0.83062,-0.76,-30.453,-0.76,-0.8825,16.438
-30.33,-0.97865,-1.005,-30.575,-0.76,-0.3925,16.465
-30.575,-1.1267,-0.76,-30.453,-0.6375,-0.8825,16.491
-30.575,-1.1267,-0.76,-30.817,-1.2475,-1.125,16.518
-30.207,-0.83062,-0.76,-30.453,-1.005,-1.005,16.542
-30.33,-0.97865,-0.76,-30.453,-1.005,-0.6375,16.569
-30.817,-1.1267,-0.8825,-30.575,-0.8825,-1.005,16.596
-30.33,-0.97865,-0.515,-30.453,-0.76,-0.76,16.622
-30.085,-0.97865,-0.76,-30.085,-0.8825,-0.8825,16.647
-30.085,-0.83062,-0.515,-30.33,-0.6375,-0.76,16.673
-30.695,-0.97865,-0.6375,-30.817,-0.8825,-0.8825,16.7
-30.207,-0.6826,-0.515,-30.33,-0.8825,-0.6375,16.727
-30.33,-0.6826,-0.515,-30.575,-0.76,-0.8825,16.751
-30.33,-0.83062,-0.76,-30.33,-0.515,-0.6375,16.778
-30.575,-0.97865,-0.8825,-30.695,-0.76,-0.76,16.805
-30.453,-1.1267,-0.8825,-30.575,-0.8825,-0.8825,16.831
-30.33,-0.97865,-0.6375,-30.817,-1.005,-1.125,16.858
-30.33,-0.83062,-0.515,-30.817,-0.76,-0.6375,16.882
-30.33,-0.83062,-0.515,-30.453,-0.6375,-0.6375,16.909
-30.207,-0.6826,-0.515,-30.453,-0.6375,-0.6375,16.936
-30.207,-0.53458,-0.8825,-30.453,-0.8825,-1.005,16.962
-30.453,-0.83062,-0.6375,-31.307,-0.8825,-1.125,16.987
-30.207,-0.6826,-0.6375,-30.695,-0.8825,-1.125,17.013
-30.085,-0.53458,-0.515,-30.207,-0.76,-0.76,17.04
-30.207,-0.53458,-0.515,-30.33,-0.515,-0.76,17.067
-30.695,-0.97865,-0.6375,-30.575,-0.8825,-0.8825,17.091
-30.94,-0.97865,-0.76,-31.063,-1.37,-1.2475,17.118
-30.207,-0.53458,-0.3925,-30.207,-0.8825,-0.76,17.144
-30.207,-0.53458,-0.3925,-30.207,-0.8825,-0.76,17.171
-30.33,-0.6826,-0.76,-30.575,-0.76,-0.8825,17.196
-30.33,-0.83062,-0.3925,-30.453,-0.76,-1.005,17.222
-30.575,-0.83062,-0.6375,-31.063,-1.2475,-1.2475,17.249
-30.33,-0.6826,-0.3925,-30.575,-1.005,-0.8825,17.276
-30.085,-0.6826,-0.6375,-30.33,-0.76,-0.76,17.3
-30.207,-0.6826,-0.515,-30.453,-0.76,-1.005,17.327
-30.207,-0.6826,-0.3925,-30.33,-0.6375,-0.76,17.353
-30.575,-0.83062,-0.515,-30.817,-1.125,-1.2475,17.38
-30.33,-0.83062,-0.76,-30.575,-1.005,-1.005,17.405
-30.817,-0.83062,-0.76,-30.453,-0.8825,-0.76,17.431
-30.33,-0.83062,-0.8825,-30.453,-0.76,-1.125,17.458
-30.085,-0.53458,-0.515,-30.33,-0.515,-0.76,17.484
-30.33,-0.6826,-0.515,-30.575,-1.005,-1.005,17.509
-30.453,-0.83062,-0.6375,-30.33,-0.8825,-0.76,17.536
-30.817,-0.97865,-0.8825,-30.453,-0.8825,-0.76,17.562
-30.207,-0.6826,-0.515,-30.453,-1.005,-1.005,17.589
-30.207,-0.6826,-0.515,-30.575,-0.76,-1.005,17.613
-30.33,-0.24156,-0.515,-30.33,-0.515,-0.76,17.64
-30.33,-0.6826,-0.76,-30.575,-0.6375,-0.6375,17.667
-30.453,-0.53458,-0.6375,-30.575,-1.005,-0.8825,17.693
-30.085,-0.53458,-0.3925,-30.817,-0.6375,-0.8825,17.718
-30.207,-0.53458,-0.6375,-30.695,-0.8825,-0.8825,17.744
-30.94,-1.1267,-1.005,-30.94,-0.8825,-1.005,17.771
-30.207,-0.6826,-0.515,-30.453,-1.005,-0.76,17.798
-30.207,-0.53458,-0.27,-30.33,-0.8825,-1.005,17.822
-30.33,-0.6826,-0.515,-30.695,-0.76,-0.6375,17.849
-30.085,-0.53458,-0.6375,-30.33,-0.515,-0.6375,17.876
-31.185,-0.6826,-0.3925,-30.453,-0.6375,-0.76,17.902
-30.695,-1.1267,-0.76,-30.695,-1.005,-1.125,17.927
-30.207,-0.97865,-0.515,-30.453,-1.005,-1.125,17.953
-30.575,-1.1267,-0.6375,-30.94,-0.76,-0.8825,17.98
-30.575,-0.97865,-0.76,-30.575,-1.005,-0.76,18.007
-30.207,-0.97865,-0.6375,-30.33,-0.515,-0.76,18.031
-30.207,-0.97865,-0.6375,-30.453,-0.515,-0.76,18.058
-30.207,-0.97865,-0.6375,-30.695,-0.76,-1.005,18.084
-30.453,-1.1267,-0.8825,-30.695,-1.005,-1.005,18.111
-30.33,-0.83062,-0.515,-30.33,-0.76,-0.76,18.136
-30.33,-0.97865,-0.6375,-30.575,-0.8825,-0.8825,18.162
-30.33,-0.6826,-0.515,-30.575,-0.76,-1.125,18.189
-30.33,-0.97865,-0.76,-30.94,-0.76,-1.005,18.215
-30.33,-1.1267,-0.6375,-30.575,-1.005,-0.8825,18.24
-35.95,-6.1473,-4.0575,-33.627,-4.7925,-1.2475,18.267
-38.76,-8.6546,-6.7475,-35.705,-6.87,-5.8925,18.293
-41.448,-11.165,-9.3125,-38.15,-9.0675,-8.58,18.32
-43.282,-13.234,-11.267,-39.738,-11.145,-10.902,18.347
-44.502,-15.448,-13.345,-40.715,-13.222,-13.345,18.371
-44.502,-17.219,-15.178,-41.327,-15.055,-15.3,18.398
-44.015,-19.433,-17.378,-41.57,-16.645,-17.01,18.424
-42.425,-20.321,-18.722,-41.083,-17.988,-18.477,18.451
-41.57,-21.65,-20.187,-40.715,-19.332,-19.942,18.476
-40.35,-22.683,-21.41,-40.105,-20.432,-21.532,18.502
-40.105,-23.716,-22.997,-40.105,-22.265,-23.242,18.529
-39.738,-24.898,-24.22,-39.983,-23.73,-24.83,18.555
-39.373,-25.783,-25.32,-39.492,-24.097,-25.443,18.58
-39.005,-26.227,-26.053,-39.373,-25.075,-26.42,18.607
-39.005,-27.26,-27.153,-39.373,-26.297,-27.763,18.633
-39.25,-28.145,-28.253,-39.615,-27.52,-28.74,18.66
-39.738,-29.474,-29.717,-39.983,-28.497,-29.963,18.684
-39.615,-29.77,-30.33,-39.615,-28.863,-30.207,18.711
-39.983,-30.063,-30.817,-39.615,-29.84,-31.307,18.738
-39.983,-30.803,-31.673,-39.983,-30.817,-32.407,18.764
-40.47,-31.099,-32.407,-40.35,-31.917,-33.75,18.791
-40.838,-32.133,-33.385,-40.96,-33.017,-34.727,18.815
-40.838,-32.722,-33.75,-41.083,-33.262,-35.218,18.842
-41.083,-32.722,-34.362,-41.205,-33.995,-35.828,18.869
-41.57,-33.755,-34.972,-41.815,-34.727,-36.44,18.895
-42.06,-34.051,-35.828,-42.305,-35.828,-37.538,18.92
-42.425,-34.936,-36.682,-43.037,-36.805,-38.515,18.947
-43.282,-35.824,-37.418,-43.525,-37.295,-39.25,18.973
-43.403,-36.265,-38.273,-43.892,-38.028,-39.738,19
-44.137,-37.005,-38.883,-44.502,-39.128,-40.593,19.024
-44.38,-37.594,-39.373,-44.747,-40.105,-41.327,19.051
-45.725,-38.923,-40.593,-46.215,-41.205,-42.425,19.078
-45.602,-38.775,-40.47,-45.48,-41.083,-42.547,19.104
-45.725,-38.923,-41.083,-45.97,-41.815,-42.915,19.131
-46.337,-39.66,-41.57,-46.703,-42.915,-44.015,19.155
-47.07,-40.401,-42.305,-47.315,-43.892,-44.87,19.182
-48.17,-41.73,-43.647,-48.292,-45.115,-45.602,19.209
-48.047,-41.434,-43.282,-48.047,-44.747,-45.847,19.235
-48.78,-42.319,-44.137,-48.903,-45.602,-46.58,19.26
-49.27,-42.615,-44.625,-49.513,-46.58,-47.07,19.286
-49.513,-43.059,-44.992,-49.758,-47.193,-47.68,19.313
-50.002,-43.796,-46.093,-50.49,-47.803,-48.535,19.34
-50.612,-44.24,-46.58,-51.102,-48.657,-49.148,19.364
-51.345,-45.125,-47.315,-51.59,-49.27,-50.002,19.391
-52.203,-46.01,-48.17,-52.568,-50.367,-50.612,19.418
-52.568,-46.454,-48.413,-52.445,-50.612,-50.858,19.444
-53.18,-47.043,-49.025,-52.812,-51.225,-51.59,19.471
-53.18,-46.895,-48.78,-53.18,-51.712,-52.08,19.495
-53.668,-47.043,-49.27,-53.545,-52.203,-52.69,19.522
-54.035,-47.635,-49.758,-54.035,-53.058,-53.422,19.549
-54.522,-48.817,-50.858,-54.89,-53.912,-54.035,19.575
-55.99,-49.998,-52.08,-56.112,-54.89,-55.255,19.6
-55.378,-49.702,-51.835,-55.622,-54.645,-55.255,19.626
-55.745,-50.146,-52.322,-56.112,-55.255,-55.745,19.653
-56.112,-50.291,-52.69,-56.845,-55.99,-56.478,19.68
-56.6,-50.883,-53.3,-57.332,-56.6,-56.845,19.704
-56.845,-51.031,-53.422,-57.455,-56.6,-56.968,19.731
-57.09,-51.472,-53.912,-57.945,-57.21,-57.7,19.758
-58.067,-52.508,-54.522,-58.8,-58.432,-58.8,19.784
-58.188,-52.801,-54.768,-59.045,-58.678,-59.288,19.811
-59.045,-53.541,-55.378,-59.655,-59.165,-59.045,19.835
-59.777,-54.278,-55.99,-60.51,-59.655,-60.023,19.862
-59.288,-53.689,-55.868,-59.9,-59.532,-59.9,19.889
-59.41,-53.982,-56.112,-60.142,-60.142,-60.51,19.915
-60.023,-54.722,-57.09,-60.877,-60.755,-61.12,19.94
-60.755,-55.311,-57.578,-61.365,-61.365,-61.61,19.966
-63.81,-58.707,-60.387,-64.175,-64.175,-64.42,19.993
-61.61,-56.199,-58.188,-62.097,-61.733,-62.097,20.02
-61.365,-56.344,-58.067,-61.977,-62.097,-62.587,20.044
-62.097,-56.937,-58.922,-63.075,-63.075,-63.197,20.071
-62.465,-57.085,-59.165,-63.197,-63.197,-63.565,20.097
-62.833,-57.526,-59.655,-63.688,-63.197,-63.565,20.124
-63.32,-58.118,-60.023,-64.055,-64.055,-64.055,20.151
-63.565,-58.707,-60.265,-64.297,-64.175,-64.42,20.175
-63.442,-58.562,-60.387,-64.175,-64.055,-64.297,20.202
-64.175,-59.151,-60.633,-64.543,-64.297,-64.665,20.229
-64.297,-59.151,-61.12,-64.42,-64.42,-64.543,20.255
-64.42,-59.299,-61.12,-64.665,-64.543,-65.032,20.28
-64.297,-59.447,-61.487,-65.275,-65.397,-65.397,20.306
-64.42,-60.036,-61.733,-65.397,-65.642,-66.01,20.333
-65.275,-60.628,-62.22,-65.765,-65.888,-66.252,20.36
-66.252,-61.957,-63.442,-67.23,-67.108,-67.475,20.386
-65.52,-61.217,-62.465,-66.13,-66.375,-66.62,20.411
-65.397,-60.924,-62.587,-66.498,-66.743,-66.743,20.437
-65.765,-61.365,-63.197,-66.865,-66.987,-67.23,20.464
-66.13,-61.957,-63.32,-67.23,-67.108,-67.72,20.491
-66.865,-62.694,-64.055,-67.843,-67.72,-68.085,20.515
-66.743,-62.694,-64.055,-67.843,-67.843,-67.965,20.542
-66.987,-62.99,-64.175,-68.085,-68.085,-68.207,20.568
-67.353,-63.431,-64.787,-68.33,-68.085,-68.453,20.595
-67.597,-63.431,-65.153,-68.575,-68.33,-68.942,20.62
-68.085,-63.727,-65.153,-68.575,-68.33,-68.82,20.646
-67.843,-63.579,-65.153,-68.453,-68.698,-68.942,20.673
-68.207,-64.171,-65.52,-68.942,-69.062,-69.43,20.699
-67.965,-64.171,-65.153,-68.82,-68.575,-68.942,20.726
-68.207,-64.319,-65.397,-69.185,-69.062,-69.43,20.751
-68.575,-64.909,-65.52,-69.185,-69.185,-69.675,20.777
-68.575,-64.761,-65.888,-69.675,-69.552,-69.552,20.804
-68.575,-64.613,-65.765,-69.43,-69.43,-69.552,20.831
-68.942,-65.205,-66.01,-69.675,-69.552,-69.675,20.855
-68.942,-65.205,-66.01,-69.797,-69.552,-69.92,20.882
-69.43,-65.794,-66.375,-70.04,-70.04,-70.407,20.908
-69.797,-66.238,-66.987,-70.407,-70.285,-70.285,20.935
-69.185,-66.09,-66.62,-70.04,-70.04,-69.797,20.962
-69.552,-66.238,-67.108,-70.162,-70.285,-70.407,20.986
-69.552,-66.09,-67.108,-70.407,-70.407,-70.775,21.013
-69.797,-66.238,-67.353,-70.775,-70.898,-71.14,21.039
-69.797,-66.83,-67.597,-70.898,-71.385,-71.385,21.066
-69.675,-66.682,-67.108,-70.53,-70.898,-70.775,21.091
-70.162,-67.123,-67.597,-71.017,-70.898,-71.263,21.117
-69.92,-66.975,-67.23,-70.653,-70.653,-71.263,21.144
-70.407,-67.567,-68.207,-71.995,-72.118,-72.485,21.17
-70.407,-67.419,-68.085,-71.508,-71.508,-71.875,21.195
-70.775,-67.863,-68.33,-71.752,-71.508,-71.508,21.222
-70.653,-67.715,-68.453,-71.63,-71.385,-71.63,21.248
-71.14,-68.452,-68.942,-72.24,-71.875,-72.485,21.275
-71.263,-68.6,-69.062,-72.485,-72.362,-72.362,21.302
-71.508,-68.6,-69.185,-72.608,-72.608,-72.73,21.326
-71.508,-68.6,-69.062,-72.24,-71.995,-72.24,21.353
-71.14,-68.156,-68.698,-71.875,-71.875,-72.362,21.379
-71.017,-68.011,-68.575,-71.752,-72.118,-72.118,21.406
-71.995,-69.192,-69.308,-72.608,-72.73,-72.972,21.431
-71.752,-69.044,-69.308,-72.608,-72.608,-72.73,21.457
-71.752,-68.896,-68.942,-72.24,-72.118,-72.118,21.484
-71.385,-68.304,-68.453,-71.752,-71.995,-72.118,21.51
-71.752,-68.452,-68.942,-72.485,-72.485,-72.608,21.537
-71.63,-68.896,-69.185,-72.73,-72.852,-73.095,21.562
-71.995,-69.337,-69.92,-73.095,-72.852,-73.218,21.588
-71.752,-69.485,-69.92,-73.218,-72.73,-72.972,21.615
-71.995,-69.337,-69.675,-72.972,-72.608,-72.972,21.641
-71.752,-69.337,-69.552,-72.972,-72.972,-72.972,21.666
-71.63,-68.896,-69.43,-72.608,-72.73,-73.095,21.693
-71.995,-69.485,-69.675,-72.852,-72.852,-73.34,21.719
-71.995,-69.044,-69.675,-72.972,-72.972,-73.462,21.746
-71.875,-69.337,-69.552,-73.095,-73.218,-73.34,21.771
-72.24,-69.633,-69.92,-73.34,-73.462,-73.462,21.797
-73.462,-70.962,-70.898,-74.317,-74.44,-74.317,21.824
-72.485,-69.633,-69.675,-73.095,-73.095,-73.585,21.85
-72.485,-69.633,-70.04,-73.462,-73.34,-73.708,21.877
-72.362,-69.485,-69.92,-73.218,-73.218,-73.34,21.902
-72.73,-69.929,-70.285,-73.708,-73.708,-73.83,21.928
-72.485,-69.633,-70.285,-73.585,-73.218,-73.585,21.955
-72.972,-70.225,-70.653,-74.073,-73.95,-73.95,21.981
-72.73,-70.225,-70.407,-73.95,-73.34,-73.708,22.006
-73.34,-70.373,-70.898,-73.708,-74.073,-73.83,22.033
-72.852,-69.929,-70.407,-73.585,-73.708,-73.708,22.059
-72.852,-70.077,-70.285,-73.462,-73.585,-73.83,22.086
-72.608,-69.781,-70.407,-73.585,-73.585,-73.83,22.112
-72.608,-69.929,-70.162,-73.708,-73.83,-74.073,22.137
-72.73,-70.077,-70.285,-73.585,-73.708,-73.83,22.164
-73.218,-70.666,-70.775,-74.195,-73.95,-74.073,22.19
-72.972,-70.077,-70.53,-74.073,-73.95,-74.317,22.217
-72.608,-70.077,-70.407,-73.95,-73.708,-74.195,22.242
-73.218,-70.518,-70.775,-74.44,-74.317,-74.685,22.268
-73.095,-70.225,-70.898,-74.073,-74.073,-74.195,22.295
-72.852,-70.373,-70.775,-74.073,-73.95,-73.95,22.321
-73.218,-70.814,-71.263,-74.927,-74.927,-75.418,22.348
-73.462,-70.962,-71.385,-74.927,-74.44,-74.927,22.373
-73.34,-70.518,-71.14,-74.317,-74.195,-74.562,22.399
-73.218,-70.373,-71.017,-74.317,-74.317,-74.44,22.426
-72.972,-70.077,-70.53,-73.83,-73.708,-74.073,22.452
-73.585,-70.814,-71.017,-74.808,-74.808,-75.172,22.477
-73.34,-70.666,-70.898,-74.44,-74.562,-74.685,22.504
-71.14,-70.518,-70.898,-74.44,-74.44,-74.685,22.53
-61.365,-71.11,-71.263,-74.562,-74.685,-74.685,22.557
-53.422,-70.814,-70.53,-73.95,-73.95,-73.95,22.581
-45.847,-71.258,-71.508,-74.685,-74.562,-74.808,22.608
-38.395,-70.666,-71.017,-74.317,-74.317,-74.562,22.635
-31.917,-70.962,-71.263,-74.562,-74.562,-74.808,22.661
-29.23,-71.258,-71.385,-74.562,-74.562,-74.808,22.688
-26.053,-71.554,-71.263,-74.44,-74.195,-74.317,22.713
-25.93,-71.699,-71.508,-74.562,-74.44,-74.562,22.739
-23.852,-71.258,-71.017,-74.073,-74.317,-74.44,22.766
-22.633,-71.554,-71.63,-74.927,-75.05,-75.295,22.792
-19.7,-71.258,-71.017,-74.195,-74.562,-74.808,22.817
-21.532,-71.258,-71.017,-74.195,-74.073,-74.317,22.844
-21.042,-71.11,-71.017,-74.317,-74.317,-74.562,22.87
-20.92,-71.699,-71.752,-74.562,-74.685,-74.927,22.897
-20.677,-71.258,-71.263,-74.317,-74.562,-74.808,22.921
-20.677,-71.554,-71.63,-74.685,-74.808,-75.05,22.948
-21.165,-71.995,-71.875,-74.808,-75.172,-75.295,22.975
-20.797,-71.699,-71.995,-75.662,-75.54,-75.905,23.001
-20.432,-70.962,-71.385,-74.808,-74.808,-74.927,23.026
-20.555,-71.11,-71.263,-74.927,-75.05,-75.05,23.052
-20.555,-71.11,-71.263,-74.927,-74.927,-75.172,23.079
-21.287,-71.847,-71.752,-75.418,-75.295,-75.418,23.106
-20.677,-71.554,-71.508,-75.05,-74.927,-75.172,23.132
-20.797,-71.554,-71.508,-75.05,-75.05,-74.927,23.157
-20.555,-71.554,-71.752,-74.808,-74.685,-74.685,23.184
-20.797,-71.554,-71.875,-75.172,-75.05,-75.172,23.21
-20.677,-71.406,-71.995,-74.927,-74.808,-75.172,23.237
-20.92,-71.995,-72.362,-75.785,-75.785,-76.15,23.261
-20.677,-71.258,-71.752,-75.05,-75.05,-75.172,23.288
-20.555,-71.258,-71.63,-75.05,-75.05,-75.05,23.315
-20.555,-71.406,-71.508,-74.808,-75.05,-75.05,23.341
-20.31,-71.11,-71.263,-74.44,-74.44,-74.808,23.366
-20.432,-71.406,-71.385,-74.685,-74.562,-75.05,23.392
-20.555,-71.11,-71.508,-74.927,-74.685,-75.295,23.419
-20.555,-71.554,-71.875,-75.05,-75.172,-75.295,23.446
-20.432,-70.962,-71.63,-75.295,-74.927,-75.05,23.47
-20.432,-71.11,-71.752,-74.927,-74.808,-75.05,23.497
-20.555,-71.995,-72.485,-76.395,-76.15,-76.395,23.523
-20.555,-71.554,-71.875,-75.172,-75.05,-75.662,23.55
-20.555,-71.699,-72.24,-75.662,-75.418,-75.785,23.577
-20.797,-71.847,-71.752,-75.418,-75.295,-75.418,23.601
-20.555,-71.406,-71.752,-75.295,-74.927,-75.05,23.628
-20.432,-71.258,-71.63,-75.295,-74.927,-75.295,23.655
-20.31,-71.258,-71.752,-75.05,-75.05,-75.54,23.681
-20.677,-71.554,-71.752,-75.172,-75.295,-75.418,23.706
-20.797,-71.699,-72.24,-75.295,-75.295,-75.295,23.732
-20.432,-71.258,-71.63,-74.685,-74.562,-74.685,23.759
-20.555,-71.847,-72.118,-75.172,-75.172,-75.54,23.786
-20.432,-71.258,-71.752,-75.05,-74.927,-75.418,23.81
-20.31,-71.258,-71.875,-75.172,-75.295,-75.54,23.837
-20.31,-71.554,-72.362,-75.662,-75.785,-76.028,23.863
-20.432,-70.962,-71.508,-74.808,-74.927,-75.172,23.89
-20.187,-71.258,-71.385,-75.05,-74.808,-75.05,23.917
-20.555,-71.699,-71.995,-75.662,-75.295,-75.54,23.941
-20.31,-71.406,-72.118,-75.295,-75.295,-75.418,23.968
-20.677,-71.699,-71.875,-75.295,-75.418,-75.54,23.994
-20.797,-71.699,-72.24,-75.54,-75.172,-75.295,24.021
-20.797,-72.143,-72.73,-76.15,-75.905,-75.785,24.046
-20.187,-70.962,-71.63,-75.05,-74.808,-75.172,24.072
-20.187,-70.962,-71.752,-75.295,-75.05,-75.295,24.099
-20.432,-71.699,-72.118,-75.172,-75.295,-75.54,24.126
-20.432,-71.699,-72.118,-75.418,-75.295,-75.662,24.15
-20.432,-71.554,-71.752,-75.172,-75.05,-75.172,24.177
-20.555,-71.699,-71.875,-75.172,-75.172,-75.54,24.203
-20.065,-71.258,-71.63,-75.05,-74.927,-75.418,24.23
-20.187,-71.406,-72.118,-75.418,-75.54,-75.662,24.255
-20.31,-71.11,-71.63,-74.927,-74.927,-75.418,24.281
-20.432,-71.699,-72.362,-75.418,-75.418,-75.54,24.308
-20.31,-71.406,-71.752,-75.172,-74.927,-75.295,24.334
-20.187,-71.554,-71.995,-75.172,-75.295,-75.418,24.361
-20.555,-71.847,-72.24,-75.662,-75.662,-75.905,24.386
-20.432,-71.554,-71.995,-75.172,-75.05,-75.418,24.412
-20.555,-71.406,-72.118,-75.54,-75.418,-76.028,24.439
-20.187,-70.962,-71.508,-75.05,-74.808,-75.172,24.465
-20.065,-70.666,-71.385,-74.927,-74.927,-75.172,24.49
-20.065,-71.406,-71.752,-75.418,-75.295,-75.172,24.517
-19.577,-70.814,-71.263,-74.808,-74.562,-74.927,24.543
-20.432,-71.699,-71.875,-75.172,-75.295,-75.54,24.57
-20.31,-71.554,-71.995,-74.927,-74.927,-75.418,24.594
-20.555,-71.258,-72.24,-75.54,-75.785,-75.54,24.621
-20.187,-70.962,-71.752,-74.927,-75.05,-75.05,24.648
-20.31,-71.11,-71.875,-75.05,-74.927,-75.418,24.674
-20.187,-70.814,-71.63,-74.927,-74.927,-75.172,24.699
-20.31,-71.11,-71.752,-74.927,-74.927,-75.295,24.726
-20.31,-71.258,-71.752,-75.172,-75.295,-75.295,24.752
-20.31,-71.258,-71.508,-74.927,-75.05,-75.05,24.779
-20.187,-71.11,-71.385,-74.927,-74.562,-74.808,24.805
-20.432,-71.554,-72.24,-75.785,-75.662,-76.15,24.83
-20.31,-71.258,-71.752,-75.172,-75.172,-75.172,24.857
-20.31,-71.11,-71.752,-75.172,-75.172,-75.418,24.883
-20.555,-71.406,-72.118,-75.662,-75.662,-75.418,24.91
-20.187,-70.962,-71.508,-75.05,-74.685,-74.927,24.934
-20.432,-71.699,-71.995,-75.54,-75.172,-75.54,24.961
-20.31,-71.406,-71.995,-75.54,-75.172,-75.418,24.988
-20.432,-71.699,-71.995,-75.295,-75.295,-75.54,25.014
-20.31,-71.406,-71.63,-75.172,-75.172,-75.172,25.039
-20.187,-70.962,-71.63,-74.927,-74.685,-74.927,25.065
-20.432,-71.554,-71.875,-75.172,-75.172,-75.295,25.092
-20.065,-71.258,-71.63,-74.808,-74.808,-75.295,25.119
-20.187,-71.11,-71.385,-74.808,-74.685,-75.05,25.145
-20.31,-71.406,-71.875,-75.05,-75.172,-75.295,25.17
-20.677,-71.995,-72.24,-75.54,-75.172,-75.418,25.197
-20.797,-71.699,-72.24,-75.418,-75.418,-75.54,25.223
-20.187,-71.406,-71.995,-75.418,-75.172,-75.54,25.25
-20.065,-71.258,-71.875,-75.418,-75.418,-75.662,25.274
-20.187,-71.11,-71.752,-75.418,-75.295,-75.54,25.301
-20.432,-71.406,-71.752,-75.172,-75.05,-75.295,25.328
-20.187,-71.406,-71.508,-75.05,-74.808,-75.05,25.354
-20.677,-72.291,-72.485,-76.028,-75.54,-75.785,25.379
-20.31,-71.699,-71.752,-75.418,-75.295,-75.54,25.405
-20.187,-71.11,-71.385,-74.927,-74.808,-74.927,25.432
-20.432,-71.406,-72.118,-75.172,-74.808,-75.295,25.459
-20.432,-71.258,-71.875,-75.05,-74.927,-75.05,25.485
-20.432,-71.258,-71.875,-75.172,-74.927,-75.295,25.51
-20.187,-71.406,-71.995,-75.172,-75.295,-75.418,25.536
-20.187,-71.258,-71.63,-75.05,-75.05,-75.295,25.563
-20.187,-71.258,-71.63,-74.927,-74.685,-75.172,25.59
-20.432,-71.554,-72.118,-75.418,-75.295,-75.785,25.614
-20.555,-71.11,-71.508,-74.808,-74.685,-75.172,25.641
-20.187,-70.962,-71.508,-74.927,-75.05,-75.172,25.668
-20.187,-71.258,-71.752,-75.295,-75.418,-75.54,25.694
-20.187,-71.406,-71.995,-75.295,-74.927,-75.418,25.719
-20.432,-71.554,-71.995,-75.295,-74.927,-75.418,25.745
-20.677,-71.554,-71.995,-75.418,-75.05,-75.295,25.772
-20.677,-71.847,-72.118,-75.418,-75.418,-75.295,25.799
-20.187,-71.11,-71.752,-75.05,-75.172,-75.172,25.823
-20.31,-71.258,-71.995,-75.295,-74.927,-75.295,25.85
-20.677,-71.847,-72.608,-75.905,-75.54,-75.905,25.876
-20.31,-71.258,-71.875,-75.172,-75.295,-75.662,25.903
-20.31,-71.699,-71.752,-75.05,-75.295,-75.418,25.93
-20.432,-71.554,-71.752,-75.05,-75.295,-75.418,25.954
-20.187,-71.11,-71.385,-74.685,-74.562,-74.927,25.981
-22.387,-75.098,-75.418,-78.472,-78.35,-78.718,26.007
-20.31,-71.258,-71.875,-75.05,-75.172,-75.54,26.034
-20.187,-71.258,-71.752,-75.172,-75.172,-75.418,26.059
-20.31,-71.11,-71.752,-75.05,-75.172,-75.295,26.085
-20.187,-71.406,-71.752,-75.295,-75.05,-75.295,26.112
-20.31,-71.699,-72.118,-75.662,-75.54,-75.662,26.139
-20.065,-71.11,-71.63,-75.295,-75.295,-75.418,26.163
-20.432,-72.143,-72.362,-75.785,-75.662,-75.905,26.19
-20.31,-70.962,-71.508,-75.05,-75.05,-75.05,26.216
-20.31,-71.406,-71.875,-75.295,-74.927,-75.172,26.243
-20.187,-71.258,-71.508,-75.172,-74.927,-75.418,26.268
-20.31,-71.406,-71.995,-75.418,-75.418,-75.54,26.294
-20.31,-71.406,-71.875,-75.295,-75.05,-75.172,26.321
-20.432,-71.258,-71.995,-74.927,-75.05,-75.05,26.347
-20.432,-71.406,-71.63,-74.685,-74.685,-74.808,26.374
-20.797,-71.995,-72.362,-75.662,-75.54,-75.54,26.399
-20.065,-70.962,-71.752,-75.172,-75.295,-75.54,26.425
-20.555,-71.11,-71.63,-74.927,-75.172,-75.295,26.452
-20.677,-71.406,-71.752,-75.172,-75.295,-75.418,26.478
-20.92,-71.699,-71.995,-75.295,-75.295,-75.662,26.503
-20.92,-71.406,-71.875,-75.172,-75.05,-75.295,26.53
-20.31,-71.258,-71.508,-75.05,-75.05,-75.785,26.556
-20.555,-71.554,-71.995,-75.418,-75.295,-75.418,26.583
-20.555,-71.406,-71.995,-75.418,-75.418,-75.418,26.607
-20.677,-71.699,-72.24,-75.662,-75.295,-75.418,26.634
-20.92,-72.143,-72.73,-76.028,-75.785,-75.905,26.661
-20.555,-71.406,-71.995,-75.54,-75.54,-75.662,26.687
-20.432,-71.554,-71.995,-75.54,-75.418,-75.662,26.714
-20.677,-71.847,-71.875,-75.54,-75.54,-75.785,26.739
-20.555,-71.699,-71.875,-75.05,-75.05,-75.418,26.765
-20.797,-72.143,-72.362,-75.418,-75.295,-75.54,26.792
-20.187,-71.11,-71.752,-75.295,-75.295,-75.295,26.818
-20.432,-70.962,-71.508,-74.808,-74.927,-75.172,26.843
-20.432,-71.258,-71.875,-74.927,-75.05,-75.172,26.87
-20.432,-71.11,-71.63,-75.05,-75.05,-75.418,26.896
-20.31,-71.406,-71.995,-75.295,-75.172,-75.662,26.923
-20.31,-71.258,-71.752,-75.05,-75.172,-75.418,26.947
-20.31,-71.406,-71.752,-75.05,-75.172,-75.172,26.974
-20.31,-71.406,-71.752,-75.418,-75.418,-75.54,27.001
-20.187,-70.962,-71.508,-75.05,-74.927,-75.295,27.027
-20.187,-71.258,-71.752,-75.295,-75.05,-75.295,27.054
-20.31,-71.406,-71.752,-75.295,-75.295,-75.295,27.078
-19.942,-71.11,-71.508,-75.05,-75.05,-75.05,27.105
-20.555,-71.847,-72.118,-75.662,-75.54,-75.785,27.132
-20.187,-71.11,-71.752,-75.05,-74.927,-75.295,27.158
-20.797,-72.588,-72.972,-76.273,-75.905,-75.905,27.183
-20.555,-71.554,-72.24,-75.662,-75.295,-75.418,27.21
-20.432,-71.554,-72.118,-75.172,-75.418,-75.418,27.237
-20.432,-71.554,-71.995,-75.295,-75.295,-75.295,27.263
-20.187,-71.11,-71.63,-74.927,-74.927,-75.295,27.287
-20.677,-72.439,-72.485,-76.028,-75.905,-76.273,27.314
-20.432,-71.406,-71.752,-75.172,-75.295,-75.905,27.341
-20.31,-71.406,-71.508,-75.05,-74.927,-75.05,27.367
-20.187,-71.554,-71.752,-75.05,-75.172,-75.172,27.392
-20.31,-70.962,-71.508,-74.808,-74.808,-75.295,27.418
-20.065,-71.11,-71.875,-75.172,-74.927,-75.418,27.445
-20.187,-71.11,-71.875,-75.295,-75.172,-75.54,27.472
-20.187,-71.258,-71.995,-75.54,-75.295,-75.418,27.498
-20.31,-71.406,-71.875,-75.295,-75.172,-75.172,27.523
-20.432,-71.554,-71.995,-75.418,-75.172,-75.295,27.549
-20.187,-71.258,-71.875,-75.418,-74.808,-75.295,27.576
-20.065,-71.699,-71.752,-75.418,-75.172,-75.418,27.603
-20.31,-71.406,-71.752,-75.295,-75.172,-75.05,27.627
-20.31,-71.554,-71.752,-75.172,-74.808,-75.05,27.654
-20.31,-71.11,-71.752,-74.927,-74.927,-75.172,27.681
-20.187,-71.11,-71.385,-74.927,-74.562,-75.172,27.707
-20.31,-71.554,-72.118,-75.295,-75.418,-75.54,27.732
-20.31,-71.554,-71.995,-75.172,-75.418,-75.54,27.758
-20.31,-71.554,-72.24,-75.172,-74.808,-75.05,27.785
-20.432,-70.962,-71.752,-75.05,-74.927,-75.295,27.812
-20.31,-71.258,-71.875,-75.05,-75.05,-75.172,27.837
-19.942,-70.962,-71.63,-75.05,-75.172,-75.54,27.863
-20.31,-71.406,-72.24,-75.785,-75.905,-76.028,27.889
-20.187,-71.406,-71.875,-75.295,-75.418,-75.418,27.916
-20.555,-71.699,-71.752,-75.295,-75.05,-75.295,27.943
-20.065,-71.11,-71.508,-75.05,-74.808,-75.05,27.967
-20.432,-71.847,-71.995,-75.418,-75.172,-75.662,27.994
-20.432,-71.554,-72.24,-75.54,-75.54,-75.785,28.02
-20.31,-71.258,-71.875,-75.418,-75.295,-75.172,28.047
-20.432,-71.406,-71.995,-75.418,-75.05,-75.295,28.072
-20.555,-71.406,-72.24,-75.54,-75.172,-75.418,28.098
-20.31,-71.554,-71.995,-75.418,-75.295,-75.54,28.125
-20.31,-71.554,-71.995,-75.295,-75.418,-75.54,28.152
-20.31,-71.406,-71.752,-75.172,-75.172,-75.295,28.176
-20.677,-71.406,-71.752,-75.05,-74.927,-75.418,28.203
-20.555,-71.847,-72.485,-75.905,-75.905,-75.905,28.229
-20.065,-70.962,-71.508,-74.921,-74.921,-74.921,28.257
-20.432,-71.554,-72.118,-75.414,-75.414,-75.414,28.283
-20.432,-71.258,-72.118,-75.019,-75.019,-75.019,28.307
-17.745,-62.546,-66.987,-66.208,-66.208,-66.208,28.334
-15.422,-51.031,-59.41,-54.594,-54.594,-54.594,28.36
-14.2,-41.73,-52.445,-45.193,-45.193,-45.193,28.387
-13.345,-34.347,-45.847,-37.712,-37.712,-37.712,28.412
-12.612,-28.293,-39.983,-31.559,-31.559,-31.559,28.439
-12.367,-22.976,-34.362,-26.143,-26.143,-26.143,28.465
-12.735,-20.173,-30.575,-23.241,-23.241,-23.241,28.491
-11.88,-16.038,-25.685,-19.006,-19.006,-19.006,28.516
-11.39,-13.527,-22.142,-16.397,-16.397,-16.397,28.543
-10.657,-11.313,-19.332,-14.084,-14.084,-14.084,28.569
-9.8025,-9.8357,-17.01,-12.508,-12.508,-12.508,28.596
-10.045,-9.8357,-16.155,-12.409,-12.409,-12.409,28.621
-8.825,-8.3616,-14.445,-10.836,-10.836,-10.836,28.647
-8.2125,-8.5096,-13.835,-10.885,-10.885,-10.885,28.674
-7.235,-7.9175,-12.977,-10.194,-10.194,-10.194,28.7
-6.7475,-7.6215,-12.857,-9.7987,-9.7987,-9.7987,28.727
-5.6475,-6.8844,-12.122,-8.9627,-8.9627,-8.9627,28.752
-5.6475,-6.8844,-11.758,-8.8637,-8.8637,-8.8637,28.778
-4.7925,-6.1473,-10.902,-8.0276,-8.0276,-8.0276,28.805
-4.3025,-5.5552,-10.29,-7.3366,-7.3366,-7.3366,28.831
-3.815,-4.9661,-9.3125,-6.6486,-6.6486,-6.6486,28.856
-3.2025,-4.226,-8.4575,-5.8095,-5.8095,-5.8095,28.883
-3.08,-3.93,-7.8475,-5.4145,-5.4145,-5.4145,28.909
-3.2025,-3.785,-7.1125,-5.1705,-5.1705,-5.1705,28.936
-2.8375,-3.0449,-6.135,-4.3315,-4.3315,-4.3315,28.96
-2.5925,-2.6039,-5.6475,-3.7914,-3.7914,-3.7914,28.987
-2.225,-2.1598,-5.035,-3.2484,-3.2484,-3.2484,29.014
-1.9825,-2.0118,-4.5475,-3.0014,-3.0014,-3.0014,29.04
-1.7375,-1.7157,-4.18,-2.6064,-2.6064,-2.6064,29.065
-1.7375,-2.1598,-3.57,-2.9515,-2.9515,-2.9515,29.092
-1.4925,-2.3078,-3.325,-3.0006,-3.0006,-3.0006,29.118
-1.4925,-1.8637,-2.715,-2.4575,-2.4575,-2.4575,29.145
-1.2475,-1.1267,-2.225,-1.6215,-1.6215,-1.6215,29.169
-1.2475,-1.5677,-1.9825,-1.9636,-1.9636,-1.9636,29.198
-1.125,-1.1267,-1.86,-1.4236,-1.4236,-1.4236,29.223
-1.37,-1.2747,-1.86,-1.4726,-1.4726,-1.4726,29.249
-1.2475,-1.4227,-1.86,-1.5217,-1.5217,-1.5217,29.274
-1.2475,-0.97865,-1.4925,-0.97865,-0.97865,-0.97865,29.3
-0.6375,-0.83062,-1.125,-0.83062,-0.83062,-0.83062,29.327
-0.8825,-0.97865,-1.005,-0.97865,-0.97865,-0.97865,29.354
-0.76,-0.83062,-0.8825,-0.83062,-0.83062,-0.83062,29.378
-1.37,-1.2747,-1.37,-1.2747,-1.2747,-1.2747,29.405
-1.005,-1.1267,-0.8825,-1.1267,-1.1267,-1.1267,29.431
-0.76,-0.97865,-0.8825,-0.97865,-0.97865,-0.97865,29.458
-0.76,-0.6826,-0.8825,-0.6826,-0.6826,-0.6826,29.483
-0.8825,-0.97865,-1.005,-0.97865,-0.97865,-0.97865,29.509
-0.6375,-0.6826,-0.76,-0.6826,-0.6826,-0.6826,29.536
-0.76,-1.2747,-0.76,-1.2747,-1.2747,-1.2747,29.563
-0.76,-0.97865,-0.8825,-0.97865,-0.97865,-0.97865,29.589
-0.76,-0.97865,-0.76,-0.97865,-0.97865,-0.97865,29.614
-0.8825,-0.83062,-0.76,-0.83062,-0.83062,-0.83062,29.64
-1.2475,-1.2747,-1.2475,-1.2747,-1.2747,-1.2747,29.667
-0.76,-0.83062,-0.8825,-0.83062,-0.83062,-0.83062,29.694
-0.8825,-0.83062,-0.8825,-0.83062,-0.83062,-0.83062,29.718
-0.76,-0.97865,-0.76,-0.97865,-0.97865,-0.97865,29.745
-0.8825,-0.83062,-0.76,-0.83062,-0.83062,-0.83062,29.771
-0.76,-0.83062,-0.6375,-0.83062,-0.83062,-0.83062,29.798
-1.005,-0.97865,-0.6375,-0.97865,-0.97865,-0.97865,29.823
-1.005,-0.97865,-0.6375,-0.97865,-0.97865,-0.97865,29.849
-0.6375,-0.6826,-0.515,-0.6826,-0.6826,-0.6826,29.876
-1.125,-0.6826,-0.8825,-0.6826,-0.6826,-0.6826,29.902
-0.76,-0.97865,-0.8825,-0.97865,-0.97865,-0.97865,29.927
-1.005,-0.6826,-0.515,-0.6826,-0.6826,-0.6826,29.954
-0.6375,-0.53458,-0.6375,-0.53458,-0.53458,-0.53458,29.98
-0.6375,-0.6826,-0.6375,-0.6826,-0.6826,-0.6826,30.007
-0.515,-0.6826,-0.515,-0.6826,-0.6826,-0.6826,30.031
-0.8825,-0.83062,-0.76,-0.83062,-0.83062,-0.83062,30.058
-0.515,-0.83062,-0.8825,-0.83062,-0.83062,-0.83062,30.085
-0.8825,-0.83062,-0.76,-0.83062,-0.83062,-0.83062,30.111
-0.76,-0.6826,-0.515,-0.6826,-0.6826,-0.6826,30.136
-0.515,-0.53458,-0.515,-0.53458,-0.53458,-0.53458,30.163
-1.005,-1.2747,-1.125,-1.2747,-1.2747,-1.2747,30.189
-0.76,-0.97865,-1.005,-0.97865,-0.97865,-0.97865,30.216
-1.125,-1.2747,-1.125,-1.2747,-1.2747,-1.2747,30.242
-0.8825,-0.97865,-0.6375,-0.97865,-0.97865,-0.97865,30.267
-0.76,-0.83062,-0.6375,-0.83062,-0.83062,-0.83062,30.294
-1.005,-1.1267,-1.005,-1.1267,-1.1267,-1.1267,30.32
-0.76,-1.1267,-1.125,-1.1267,-1.1267,-1.1267,30.347
-1.005,-0.97865,-0.76,-0.97865,-0.97865,-0.97865,30.371
-0.8825,-0.83062,-0.76,-0.83062,-0.83062,-0.83062,30.398
-1.005,-1.1267,-0.76,-1.1267,-1.1267,-1.1267,30.425
-1.125,-1.1267,-1.005,-1.1267,-1.1267,-1.1267,30.451
-0.6375,-0.6826,-0.515,-0.6826,-0.6826,-0.6826,30.476
-1.2475,-1.2747,-0.8825,-1.2747,-1.2747,-1.2747,30.502
-1.2475,-1.2747,-1.005,-1.2747,-1.2747,-1.2747,30.529
-1.125,-1.1267,-1.125,-1.1267,-1.1267,-1.1267,30.556
-1.005,-0.53458,-0.515,-0.53458,-0.53458,-0.53458,30.58
-0.76,-0.6826,-0.515,-0.6826,-0.6826,-0.6826,30.607
-0.515,-0.6826,-0.76,-0.6826,-0.6826,-0.6826,30.634
-0.8825,-0.97865,-0.8825,-0.97865,-0.97865,-0.97865,30.66
-0.76,-0.6826,-0.6375,-0.6826,-0.6826,-0.6826,30.685
-0.76,-0.83062,-0.6375,-0.83062,-0.83062,-0.83062,30.711
-0.76,-0.97865,-0.6375,-0.97865,-0.97865,-0.97865,30.738
-0.515,-0.6826,-0.76,-0.6826,-0.6826,-0.6826,30.765
-1.005,-0.97865,-0.6375,-0.97865,-0.97865,-0.97865,30.789
-0.76,-0.83062,-0.76,-0.83062,-0.83062,-0.83062,30.816
-0.8825,-0.83062,-0.515,-0.83062,-0.83062,-0.83062,30.842
-0.76,-0.97865,-0.8825,-0.97865,-0.97865,-0.97865,30.869
-0.76,-0.83062,-0.3925,-0.83062,-0.83062,-0.83062,30.894
-0.76,-0.97865,-0.6375,-0.97865,-0.97865,-0.97865,30.92
-0.76,-1.1267,-1.005,-1.1267,-1.1267,-1.1267,30.947
-0.8825,-1.1267,-1.005,-1.1267,-1.1267,-1.1267,30.973
-1.005,-1.2747,-0.8825,-1.2747,-1.2747,-1.2747,30.998
-0.76,-1.1267,-0.76,-1.1267,-1.1267,-1.1267,31.025
-0.76,-1.1267,-0.515,-1.1267,-1.1267,-1.1267,31.051
-1.125,-1.2747,-1.005,-1.2747,-1.2747,-1.2747,31.078
-1.005,-1.4227,-0.8825,-1.4227,-1.4227,-1.4227,31.102
-1.005,-1.1267,-0.76,-1.1267,-1.1267,-1.1267,31.129
-0.76,-0.6826,-0.6375,-0.6826,-0.6826,-0.6826,31.156
-0.76,-1.1267,-1.005,-1.1267,-1.1267,-1.1267,31.182
-1.37,-1.4227,-1.4925,-1.4227,-1.4227,-1.4227,31.213
-1.86,-2.1598,-1.4925,-2.1598,-2.1598,-2.1598,31.234
-1.2475,-1.2747,-0.8825,-1.2747,-1.2747,-1.2747,31.26
-0.76,-1.1267,-0.6375,-1.1267,-1.1267,-1.1267,31.287
-0.6375,-1.1267,-0.8825,-1.1267,-1.1267,-1.1267,31.313
-1.125,-1.1267,-0.76,-1.1267,-1.1267,-1.1267,31.338
-1.125,-1.2747,-0.76,-1.2747,-1.2747,-1.2747,31.365
-1.005,-0.97865,-0.515,-0.97865,-0.97865,-0.97865,31.391
-0.8825,-1.2747,-0.8825,-1.2747,-1.2747,-1.2747,31.418
-0.6375,-0.6826,-0.3925,-0.6826,-0.6826,-0.6826,31.442
-1.005,-0.6826,-0.6375,-0.6826,-0.6826,-0.6826,31.469
-0.8825,-1.2747,-1.125,-1.2747,-1.2747,-1.2747,31.496
-1.005,-0.97865,-0.8825,-0.97865,-0.97865,-0.97865,31.522
-1.005,-0.83062,-0.6375,-0.83062,-0.83062,-0.83062,31.547
-0.3925,-0.53458,-0.515,-0.53458,-0.53458,-0.53458,31.573
-0.515,-0.6826,-0.76,-0.6826,-0.6826,-0.6826,31.6
-0.8825,-0.83062,-1.005,-0.83062,-0.83062,-0.83062,31.627
-0.76,-0.97865,-0.76,-0.97865,-0.97865,-0.97865,31.651
-1.005,-1.2747,-0.76,-1.2747,-1.2747,-1.2747,31.678
-0.6375,-0.97865,-0.76,-0.97865,-0.97865,-0.97865,31.705
-0.76,-0.97865,-0.76,-0.97865,-0.97865,-0.97865,31.731
-1.125,-1.7157,-1.125,-1.7157,-1.7157,-1.7157,31.756
-0.76,-1.1267,-0.76,-1.1267,-1.1267,-1.1267,31.782
-1.2475,-1.4227,-0.8825,-1.4227,-1.4227,-1.4227,31.809
-0.8825,-1.2747,-0.8825,-1.2747,-1.2747,-1.2747,31.836
-0.8825,-1.1267,-0.76,-1.1267,-1.1267,-1.1267,31.86
-0.8825,-0.97865,-0.6375,-0.97865,-0.97865,-0.97865,31.887
-0.76,-1.1267,-0.76,-1.1267,-1.1267,-1.1267,31.913
-1.005,-0.97865,-1.005,-0.97865,-0.97865,-0.97865,31.94
-0.8825,-1.1267,-0.76,-1.1267,-1.1267,-1.1267,31.965
-0.76,-0.83062,-0.6375,-0.83062,-0.83062,-0.83062,31.991
-1.125,-1.2747,-0.8825,-1.2747,-1.2747,-1.2747,32.018
-0.76,-0.83062,-0.76,-0.83062,-0.83062,-0.83062,32.044
-0.76,-0.83062,-0.515,-0.83062,-0.83062,-0.83062,32.071
-0.76,-0.38656,-0.6375,-0.38656,-0.38656,-0.38656,32.096
-0.76,-0.83062,-0.515,-0.83062,-0.83062,-0.83062,32.122
-0.6375,-0.83062,-1.005,-0.83062,-0.83062,-0.83062,32.149
-0.8825,-0.6826,-0.3925,-0.6826,-0.6826,-0.6826,32.176
-0.6375,-0.6826,-0.515,-0.6826,-0.6826,-0.6826,32.2
-0.76,-0.83062,-0.515,-0.83062,-0.83062,-0.83062,32.227
-0.6375,-0.6826,-0.6375,-0.6826,-0.6826,-0.6826,32.253
-0.76,-0.83062,-0.76,-0.83062,-0.83062,-0.83062,32.28
-1.005,-0.83062,-0.6375,-0.83062,-0.83062,-0.83062,32.305
-0.6375,-0.6826,-0.6375,-0.6826,-0.6826,-0.6826,32.331
-0.8825,-1.1267,-0.8825,-1.1267,-1.1267,-1.1267,32.358
-0.8825,-0.97865,-1.005,-0.97865,-0.97865,-0.97865,32.384
-1.005,-1.1267,-0.8825,-1.1267,-1.1267,-1.1267,32.409
-0.76,-0.83062,-0.6375,-0.83062,-0.83062,-0.83062,32.436
-0.8825,-0.83062,-0.8825,-0.83062,-0.83062,-0.83062,32.462
-1.2475,-1.1267,-1.2475,-1.1267,-1.1267,-1.1267,32.489
-0.515,-0.6826,-0.6375,-0.6826,-0.6826,-0.6826,32.513
-1.125,-1.2747,-1.005,-1.2747,-1.2747,-1.2747,32.54
-0.515,-0.53458,-0.6375,-0.53458,-0.53458,-0.53458,32.567
-0.8825,-1.1267,-1.005,-1.1267,-1.1267,-1.1267,32.593
-0.76,-0.97865,-0.76,-0.97865,-0.97865,-0.97865,32.619
-1.125,-1.1267,-0.8825,-1.1267,-1.1267,-1.1267,32.644
-1.005,-0.97865,-1.005,-0.97865,-0.97865,-0.97865,32.671
-1.005,-0.83062,-1.005,-0.83062,-0.83062,-0.83062,32.698
-0.76,-0.97865,-0.8825,-0.97865,-0.97865,-0.97865,32.722
-0.8825,-0.6826,-0.6375,-0.6826,-0.6826,-0.6826,32.749
-1.005,-0.97865,-0.76,-0.97865,-0.97865,-0.97865,32.776
-0.76,-0.97865,-1.005,-0.97865,-0.97865,-0.97865,32.802
-1.125,-0.97865,-1.005,-0.97865,-0.97865,-0.97865,32.827
-0.515,-0.97865,-1.005,-0.97865,-0.97865,-0.97865,32.853
-0.515,-0.6826,-0.76,-0.6826,-0.6826,-0.6826,32.881
-0.6375,-0.83062,-0.8825,-0.83062,-0.83062,-0.83062,32.907
-1.005,-1.4227,-1.2475,-1.4227,-1.4227,-1.4227,32.933
-1.005,-0.97865,-0.76,-0.97865,-0.97865,-0.97865,32.958
-0.76,-0.97865,-0.6375,-0.97865,-0.97865,-0.97865,32.984
-0.76,-1.1267,-1.005,-1.1267,-1.1267,-1.1267,33.011
-0.76,-1.1267,-0.8825,-1.1267,-1.1267,-1.1267,33.038
-1.2475,-1.5677,-1.005,-1.5677,-1.5677,-1.5677,33.062
-0.8825,-1.4227,-0.8825,-1.4227,-1.4227,-1.4227,33.089
-1.125,-1.4227,-1.005,-1.4227,-1.4227,-1.4227,33.115
-1.005,-1.2747,-1.125,-1.2747,-1.2747,-1.2747,33.142
-0.76,-1.2747,-0.6375,-1.2747,-1.2747,-1.2747,33.167
-0.8825,-1.2747,-0.8825,-1.2747,-1.2747,-1.2747,33.193
-0.8825,-1.4227,-0.8825,-1.4227,-1.4227,-1.4227,33.22
-1.125,-1.5677,-1.005,-1.5677,-1.5677,-1.5677,33.247
-1.125,-1.2747,-1.005,-1.2747,-1.2747,-1.2747,33.271
-0.76,-0.83062,-0.6375,-0.83062,-0.83062,-0.83062,33.298
-1.37,-1.2747,-1.005,-1.2747,-1.2747,-1.2747,33.324
-0.8825,-0.83062,-0.8825,-0.83062,-0.83062,-0.83062,33.351
-1.125,-1.1267,-1.005,-1.1267,-1.1267,-1.1267,33.376
-0.8825,-0.83062,-0.76,-0.83062,-0.83062,-0.83062,33.402
-0.76,-1.1267,-0.76,-1.1267,-1.1267,-1.1267,33.429
-1.125,-1.4227,-1.005,-1.4227,-1.4227,-1.4227,33.455
-1.005,-1.1267,-0.8825,-1.1267,-1.1267,-1.1267,33.48
-1.125,-1.2747,-0.76,-1.2747,-1.2747,-1.2747,33.507
-1.005,-1.1267,-0.76,-1.1267,-1.1267,-1.1267,33.533
-0.76,-1.1267,-1.005,-1.1267,-1.1267,-1.1267,33.56
-1.125,-1.5677,-1.2475,-1.5677,-1.5677,-1.5677,33.584
-1.005,-1.1267,-0.8825,-1.1267,-1.1267,-1.1267,33.611
-0.76,-1.2747,-0.6375,-1.2747,-1.2747,-1.2747,33.638
-1.005,-1.1267,-0.8825,-1.1267,-1.1267,-1.1267,33.664
-0.76,-1.1267,-0.8825,-1.1267,-1.1267,-1.1267,33.689
-0.76,-0.97865,-0.6375,-0.97865,-0.97865,-0.97865,33.716
-0.76,-1.1267,-0.76,-1.1267,-1.1267,-1.1267,33.742
-0.76,-1.1267,-0.76,-1.1267,-1.1267,-1.1267,33.769
-1.125,-1.2747,-1.005,-1.2747,-1.2747,-1.2747,33.793
-0.8825,-1.2747,-0.8825,-1.2747,-1.2747,-1.2747,33.82
-1.2475,-1.2747,-1.005,-1.2747,-1.2747,-1.2747,33.847
-0.6375,-0.97865,-0.76,-0.97865,-0.97865,-0.97865,33.873
-0.76,-1.1267,-0.8825,-1.1267,-1.1267,-1.1267,33.898
-1.005,-1.1267,-1.125,-1.1267,-1.1267,-1.1267,33.924
-0.8825,-1.1267,-0.76,-1.1267,-1.1267,-1.1267,33.951
-1.2475,-1.1267,-0.76,-1.1267,-1.1267,-1.1267,33.978
-0.76,-0.97865,-1.005,-0.97865,-0.97865,-0.97865,34.004
-1.125,-0.97865,-1.005,-0.97865,-0.97865,-0.97865,34.029
-0.515,-0.83062,-0.76,-0.83062,-0.83062,-0.83062,34.055
-1.005,-0.97865,-0.76,-0.97865,-0.97865,-0.97865,34.082
-1.2475,-1.4227,-1.4925,-1.4227,-1.4227,-1.4227,34.109
-1.2475,-0.97865,-0.8825,-0.97865,-0.97865,-0.97865,34.133
-0.76,-0.83062,-0.6375,-0.83062,-0.83062,-0.83062,34.16
-0.6375,-0.83062,-0.6375,-0.83062,-0.83062,-0.83062,34.187
-1.125,-1.2747,-1.2475,-1.2747,-1.2747,-1.2747,34.213
-0.8825,-1.1267,-1.005,-1.1267,-1.1267,-1.1267,34.238
-1.125,-1.1267,-0.6375,-1.1267,-1.1267,-1.1267,34.264
-0.6375,-0.6826,-0.3925,-0.6826,-0.6826,-0.6826,34.291
-0.6375,-0.97865,-0.6375,-0.97865,-0.97865,-0.97865,34.318
-0.8825,-0.83062,-0.8825,-0.83062,-0.83062,-0.83062,34.342
-1.005,-1.5677,-1.2475,-1.5677,-1.5677,-1.5677,34.369
